dust RRTMG LUT interpolated from GADS (DAR 09/2013)
V0.1 - contains Fast-J wavelengths but is the same as the original jv_spec.dat values
  w(nm)   RH       N         iK  RgDry   GamA    GamB       Q  Alpha  r-eff ss-alb  g-sym  pi(0)  pi(1)  pi(2)  pi(3)  pi(4)  pi(5)  pi(6)  pi(7)
  300.0   00  1.6000 -8.701e-03  0.150  0.900    0.20  4.0154  7.957  0.151  0.964  0.701  1.000  2.104  2.573  2.380  1.837  1.226  0.608  0.153
  400.0   00  1.5800 -3.600e-03  0.150  0.900    0.20  3.0582  6.060  0.151  0.986  0.674  1.000  2.021  2.061  1.505  0.757  0.210  0.057  0.010
  440.0   00  1.5756 -2.759e-03  0.150  0.900    0.20  2.5427  5.039  0.151  0.989  0.641  1.000  1.922  1.794  1.131  0.520  0.123  0.022  0.002
  500.0   00  1.5640 -1.800e-03  0.150  0.900    0.20  1.9436  3.852  0.151  0.992  0.600  1.000  1.799  1.419  0.639  0.243  0.052  0.008  0.001
  550.0   00  1.5580 -1.400e-03  0.150  0.900    0.20  1.5736  3.119  0.151  0.993  0.589  1.000  1.766  1.248  0.460  0.143  0.027  0.003  0.000
  600.0   00  1.5530 -1.100e-03  0.150  0.900    0.20  1.2133  2.405  0.151  0.994  0.571  1.000  1.712  1.120  0.368  0.096  0.015  0.002  0.000
  675.0   00  1.5278 -4.597e-03  0.150  0.900    0.20  0.7592  1.505  0.151  0.968  0.493  1.000  1.478  0.921  0.284  0.060  0.008  0.000  0.000
  800.0   00  1.5300 -4.000e-03  0.150  0.900    0.20  0.4618  0.915  0.151  0.967  0.345  1.000  1.035  0.698  0.186  0.028  0.003  0.000  0.000
  870.0   00  1.5301 -4.265e-03  0.150  0.900    0.20  0.3583  0.710  0.151  0.959  0.285  1.000  0.854  0.635  0.153  0.020  0.001  0.000  0.000
 1000.0   00  1.5300 -1.000e-03  0.150  0.900    0.20  0.2187  0.433  0.151  0.988  0.209  1.000  0.627  0.573  0.113  0.011  0.001  0.000  0.000
 1020.0   00  1.5300 -6.722e-04  0.150  0.900    0.20  0.2029  0.402  0.151  0.990  0.200  1.000  0.601  0.567  0.108  0.010  0.001  0.000  0.000
55555.6   00  2.4200 -6.200e-01  0.150  0.900    0.20  0.0151  0.030  0.151  0.000  0.000  1.000  0.001  0.500  0.000  0.000  0.000  0.000  0.000
23529.4   00  2.8810 -9.354e-01  0.150  0.900    0.20  0.0223  0.044  0.151  0.000  0.001  1.000  0.002  0.500  0.000  0.000  0.000  0.000  0.000
17699.1   00  1.6276 -4.238e-01  0.150  0.900    0.20  0.0407  0.081  0.151  0.000  0.001  1.000  0.002  0.500  0.000  0.000  0.000  0.000  0.000
15037.6   00  1.5047 -2.635e-01  0.150  0.900    0.20  0.0331  0.066  0.151  0.000  0.001  1.000  0.003  0.500  0.001  0.000  0.000  0.000  0.000
13157.9   00  2.0100 -3.089e-01  0.150  0.900    0.20  0.0282  0.056  0.151  0.001  0.002  1.000  0.005  0.500  0.001  0.000  0.000  0.000  0.000
11111.1   00  1.8279 -2.169e-01  0.150  0.900    0.20  0.0286  0.057  0.151  0.001  0.002  1.000  0.006  0.500  0.001  0.000  0.000  0.000  0.000
 9708.7   00  3.0062 -6.774e-01  0.150  0.900    0.20  0.0382  0.076  0.151  0.004  0.005  1.000  0.013  0.500  0.001  0.000  0.000  0.000  0.000
 8849.6   00  1.4979 -3.619e-01  0.150  0.900    0.20  0.0771  0.153  0.151  0.000  0.003  1.000  0.008  0.500  0.002  0.000  0.000  0.000  0.000
 7782.1   00  1.2660 -9.247e-02  0.150  0.900    0.20  0.0265  0.052  0.151  0.001  0.003  1.000  0.009  0.500  0.002  0.000  0.000  0.000  0.000
 6968.6   00  1.4646 -1.067e-01  0.150  0.900    0.20  0.0295  0.059  0.151  0.003  0.005  1.000  0.013  0.500  0.002  0.000  0.000  0.000  0.000
 6097.6   00  1.4354 -6.038e-02  0.150  0.900    0.20  0.0200  0.040  0.151  0.006  0.005  1.000  0.016  0.500  0.003  0.000  0.000  0.000  0.000
 5154.6   00  1.4734 -2.312e-02  0.150  0.900    0.20  0.0091  0.018  0.151  0.030  0.008  1.000  0.023  0.500  0.005  0.000  0.000  0.000  0.000
 4618.9   00  1.4966 -1.028e-02  0.150  0.900    0.20  0.0048  0.009  0.151  0.094  0.009  1.000  0.028  0.500  0.006  0.000  0.000  0.000  0.000
 4319.7   00  1.5022 -6.666e-03  0.150  0.900    0.20  0.0036  0.007  0.151  0.166  0.011  1.000  0.033  0.500  0.006  0.000  0.000  0.000  0.000
 4016.1   00  1.5002 -6.515e-03  0.150  0.900    0.20  0.0040  0.008  0.151  0.202  0.013  1.000  0.038  0.500  0.007  0.000  0.000  0.000  0.000
 3418.8   00  1.5103 -1.895e-02  0.150  0.900    0.20  0.0125  0.024  0.151  0.128  0.018  1.000  0.052  0.501  0.010  0.000  0.000  0.000  0.000
 3444.7   00  1.5104 -1.870e-02  0.150  0.900    0.20  0.0123  0.024  0.151  0.127  0.018  1.000  0.051  0.501  0.010  0.000  0.000  0.000  0.000
 2777.0   00  1.5228 -3.478e-02  0.150  0.900    0.20  0.0279  0.055  0.151  0.162  0.027  1.000  0.079  0.501  0.015  0.000  0.000  0.000  0.000
 2320.2   00  1.5226 -7.818e-03  0.150  0.900    0.20  0.0155  0.031  0.151  0.459  0.038  1.000  0.114  0.502  0.021  0.000  0.000  0.000  0.000
 2044.2   00  1.5294 -7.515e-03  0.150  0.900    0.20  0.0213  0.042  0.151  0.624  0.049  1.000  0.147  0.504  0.027  0.001  0.000  0.000  0.000
 1778.4   00  1.5301 -6.588e-03  0.150  0.900    0.20  0.0315  0.062  0.151  0.747  0.065  1.000  0.194  0.507  0.036  0.001  0.000  0.000  0.000
 1455.2   00  1.5300 -5.847e-03  0.150  0.900    0.20  0.0616  0.122  0.151  0.852  0.097  1.000  0.289  0.516  0.053  0.002  0.000  0.000  0.000
 1270.3   00  1.5300 -5.362e-03  0.150  0.900    0.20  0.0991  0.196  0.151  0.898  0.127  1.000  0.380  0.527  0.069  0.004  0.000  0.000  0.000
  944.3   00  1.5300 -2.757e-03  0.150  0.900    0.20  0.2713  0.537  0.151  0.972  0.237  1.000  0.711  0.594  0.128  0.014  0.001  0.000  0.000
  693.5   00  1.5294 -4.138e-03  0.150  0.900    0.20  0.7041  1.396  0.151  0.970  0.469  1.000  1.407  0.877  0.265  0.053  0.006  0.000  0.000
  527.1   00  1.5598 -1.634e-03  0.150  0.900    0.20  1.7375  3.444  0.151  0.992  0.593  1.000  1.778  1.313  0.521  0.177  0.035  0.004  0.000
  399.8   00  1.5800 -3.619e-03  0.150  0.900    0.20  3.0605  6.065  0.151  0.986  0.674  1.000  2.021  2.062  1.507  0.758  0.211  0.058  0.010
  329.1   00  1.6010 -5.361e-03  0.150  0.900    0.20  3.8049  7.540  0.151  0.979  0.685  1.000  2.057  2.408  2.055  1.387  0.763  0.325  0.030
  229.8   00  1.5191 -3.320e-02  0.150  0.900    0.20  3.7725  7.476  0.151  0.857  0.767  1.000  2.303  3.009  3.071  2.824  2.343  1.652  1.013
 7082.2   00  1.4680 -1.212e-01  0.150  0.900    0.20  0.0333  0.066  0.151  0.003  0.004  1.000  0.012  0.500  0.002  0.000  0.000  0.000  0.000
  300.0   00  1.6000 -8.701e-03  0.250  0.900    0.20  2.6560  3.152  0.253  0.905  0.555  1.000  1.666  2.248  1.871  2.248  2.056  2.231  2.048
  400.0   00  1.5800 -3.600e-03  0.250  0.900    0.20  3.9669  4.708  0.253  0.980  0.687  1.000  2.060  2.715  2.658  2.515  2.163  1.591  1.024
  440.0   00  1.5756 -2.759e-03  0.250  0.900    0.20  4.1222  4.892  0.253  0.986  0.700  1.000  2.099  2.709  2.588  2.272  1.755  1.127  0.579
  500.0   00  1.5640 -1.800e-03  0.250  0.900    0.20  3.9619  4.702  0.253  0.992  0.713  1.000  2.139  2.623  2.414  1.838  1.196  0.589  0.145
  550.0   00  1.5580 -1.400e-03  0.250  0.900    0.20  3.6240  4.301  0.253  0.994  0.700  1.000  2.101  2.473  2.097  1.416  0.769  0.355  0.076
  600.0   00  1.5530 -1.100e-03  0.250  0.900    0.20  3.2556  3.864  0.253  0.995  0.692  1.000  2.077  2.287  1.790  1.017  0.388  0.147  0.031
  675.0   00  1.5278 -4.597e-03  0.250  0.900    0.20  2.5878  3.071  0.253  0.980  0.680  1.000  2.041  2.057  1.437  0.714  0.201  0.049  0.009
  800.0   00  1.5300 -4.000e-03  0.250  0.900    0.20  1.8831  2.235  0.253  0.981  0.619  1.000  1.856  1.544  0.746  0.296  0.068  0.011  0.001
  870.0   00  1.5301 -4.265e-03  0.250  0.900    0.20  1.6019  1.901  0.253  0.978  0.603  1.000  1.810  1.357  0.548  0.185  0.038  0.005  0.000
 1000.0   00  1.5300 -1.000e-03  0.250  0.900    0.20  1.0985  1.304  0.253  0.994  0.569  1.000  1.706  1.119  0.373  0.096  0.015  0.002  0.000
 1020.0   00  1.5300 -6.722e-04  0.250  0.900    0.20  1.0324  1.226  0.253  0.995  0.559  1.000  1.677  1.086  0.355  0.088  0.013  0.002  0.000
55555.6   00  2.4200 -6.200e-01  0.250  0.900    0.20  0.0253  0.030  0.253  0.000  0.001  1.000  0.002  0.500  0.000  0.000  0.000  0.000  0.000
23529.4   00  2.8810 -9.354e-01  0.250  0.900    0.20  0.0377  0.045  0.253  0.001  0.002  1.000  0.006  0.500  0.001  0.000  0.000  0.000  0.000
17699.1   00  1.6276 -4.238e-01  0.250  0.900    0.20  0.0683  0.081  0.253  0.001  0.002  1.000  0.006  0.500  0.001  0.000  0.000  0.000  0.000
15037.6   00  1.5047 -2.635e-01  0.250  0.900    0.20  0.0555  0.066  0.253  0.001  0.002  1.000  0.007  0.500  0.001  0.000  0.000  0.000  0.000
13157.9   00  2.0100 -3.089e-01  0.250  0.900    0.20  0.0477  0.057  0.253  0.003  0.004  1.000  0.013  0.500  0.002  0.000  0.000  0.000  0.000
11111.1   00  1.8279 -2.169e-01  0.250  0.900    0.20  0.0485  0.058  0.253  0.006  0.005  1.000  0.016  0.500  0.003  0.000  0.000  0.000  0.000
 9708.7   00  3.0062 -6.774e-01  0.250  0.900    0.20  0.0677  0.080  0.253  0.019  0.013  1.000  0.037  0.500  0.003  0.000  0.000  0.000  0.000
 8849.6   00  1.4979 -3.619e-01  0.250  0.900    0.20  0.1305  0.154  0.253  0.003  0.007  1.000  0.021  0.500  0.004  0.000  0.000  0.000  0.000
 7782.1   00  1.2660 -9.247e-02  0.250  0.900    0.20  0.0447  0.053  0.253  0.003  0.008  1.000  0.025  0.500  0.005  0.000  0.000  0.000  0.000
 6968.6   00  1.4646 -1.067e-01  0.250  0.900    0.20  0.0506  0.060  0.253  0.015  0.012  1.000  0.034  0.500  0.007  0.000  0.000  0.000  0.000
 6097.6   00  1.4354 -6.038e-02  0.250  0.900    0.20  0.0348  0.041  0.253  0.027  0.014  1.000  0.044  0.500  0.008  0.000  0.000  0.000  0.000
 5154.6   00  1.4734 -2.312e-02  0.250  0.900    0.20  0.0172  0.020  0.253  0.123  0.021  1.000  0.063  0.501  0.012  0.000  0.000  0.000  0.000
 4618.9   00  1.4966 -1.028e-02  0.250  0.900    0.20  0.0111  0.013  0.253  0.317  0.026  1.000  0.079  0.501  0.015  0.000  0.000  0.000  0.000
 4319.7   00  1.5022 -6.666e-03  0.250  0.900    0.20  0.0098  0.011  0.253  0.466  0.030  1.000  0.090  0.501  0.018  0.000  0.000  0.000  0.000
 4016.1   00  1.5002 -6.515e-03  0.250  0.900    0.20  0.0118  0.014  0.253  0.526  0.035  1.000  0.104  0.502  0.020  0.000  0.000  0.000  0.000
 3418.8   00  1.5103 -1.895e-02  0.250  0.900    0.20  0.0319  0.038  0.253  0.386  0.048  1.000  0.144  0.504  0.027  0.001  0.000  0.000  0.000
 3444.7   00  1.5104 -1.870e-02  0.250  0.900    0.20  0.0311  0.037  0.253  0.385  0.047  1.000  0.141  0.504  0.026  0.001  0.000  0.000  0.000
 2777.0   00  1.5228 -3.478e-02  0.250  0.900    0.20  0.0737  0.087  0.253  0.420  0.072  1.000  0.218  0.510  0.041  0.001  0.000  0.000  0.000
 2320.2   00  1.5226 -7.818e-03  0.250  0.900    0.20  0.0751  0.089  0.253  0.784  0.105  1.000  0.313  0.519  0.058  0.003  0.000  0.000  0.000
 2044.2   00  1.5294 -7.515e-03  0.250  0.900    0.20  0.1163  0.138  0.253  0.865  0.136  1.000  0.406  0.531  0.074  0.005  0.000  0.000  0.000
 1778.4   00  1.5301 -6.588e-03  0.250  0.900    0.20  0.1863  0.221  0.253  0.914  0.181  1.000  0.542  0.555  0.098  0.008  0.000  0.000  0.000
 1455.2   00  1.5300 -5.847e-03  0.250  0.900    0.20  0.3579  0.424  0.253  0.946  0.281  1.000  0.842  0.629  0.151  0.019  0.001  0.000  0.000
 1270.3   00  1.5300 -5.362e-03  0.250  0.900    0.20  0.5373  0.638  0.253  0.959  0.382  1.000  1.145  0.742  0.209  0.035  0.004  0.000  0.000
  944.3   00  1.5300 -2.757e-03  0.250  0.900    0.20  1.3070  1.551  0.253  0.985  0.588  1.000  1.765  1.214  0.432  0.124  0.022  0.003  0.000
  693.5   00  1.5294 -4.138e-03  0.250  0.900    0.20  2.4695  2.931  0.253  0.982  0.670  1.000  2.010  1.979  1.326  0.640  0.172  0.039  0.007
  527.1   00  1.5598 -1.634e-03  0.250  0.900    0.20  3.7853  4.492  0.253  0.993  0.707  1.000  2.123  2.550  2.255  1.614  0.964  0.449  0.087
  399.8   00  1.5800 -3.619e-03  0.250  0.900    0.20  3.9654  4.706  0.253  0.980  0.687  1.000  2.060  2.715  2.659  2.517  2.166  1.595  1.029
  329.1   00  1.6010 -5.361e-03  0.250  0.900    0.20  3.1002  3.679  0.253  0.951  0.593  1.000  1.780  2.397  2.127  2.378  2.162  2.116  1.824
  229.8   00  1.5191 -3.320e-02  0.250  0.900    0.20  2.4577  2.917  0.253  0.677  0.687  1.000  2.062  2.746  2.822  3.158  3.270  3.416  3.458
 7082.2   00  1.4680 -1.212e-01  0.250  0.900    0.20  0.0570  0.068  0.253  0.012  0.011  1.000  0.033  0.500  0.006  0.000  0.000  0.000  0.000
  300.0   00  1.6000 -8.701e-03  0.400  0.900    0.20  2.6071  1.943  0.402  0.862  0.730  1.000  2.190  3.255  3.624  4.518  4.572  5.092  4.820
  400.0   00  1.5800 -3.600e-03  0.400  0.900    0.20  2.1923  1.634  0.402  0.941  0.506  1.000  1.517  2.098  1.515  2.102  1.809  2.234  2.079
  440.0   00  1.5756 -2.759e-03  0.400  0.900    0.20  2.4643  1.836  0.402  0.963  0.530  1.000  1.590  2.156  1.647  2.059  1.860  2.105  2.030
  500.0   00  1.5640 -1.800e-03  0.400  0.900    0.20  3.1631  2.358  0.402  0.984  0.618  1.000  1.855  2.515  2.299  2.518  2.380  2.302  2.102
  550.0   00  1.5580 -1.400e-03  0.400  0.900    0.20  3.6424  2.715  0.402  0.990  0.668  1.000  2.005  2.702  2.636  2.714  2.500  2.179  1.787
  600.0   00  1.5530 -1.100e-03  0.400  0.900    0.20  3.9815  2.968  0.402  0.993  0.695  1.000  2.085  2.791  2.764  2.694  2.379  1.855  1.308
  675.0   00  1.5278 -4.597e-03  0.400  0.900    0.20  4.0510  3.020  0.402  0.978  0.734  1.000  2.203  2.865  2.822  2.511  1.984  1.311  0.720
  800.0   00  1.5300 -4.000e-03  0.400  0.900    0.20  3.7483  2.794  0.402  0.983  0.729  1.000  2.188  2.676  2.448  1.832  1.152  0.560  0.144
  870.0   00  1.5301 -4.265e-03  0.400  0.900    0.20  3.4340  2.560  0.402  0.982  0.715  1.000  2.146  2.522  2.144  1.433  0.753  0.337  0.077
 1000.0   00  1.5300 -1.000e-03  0.400  0.900    0.20  2.9189  2.176  0.402  0.996  0.693  1.000  2.078  2.209  1.658  0.885  0.287  0.089  0.018
 1020.0   00  1.5300 -6.722e-04  0.400  0.900    0.20  2.8462  2.122  0.402  0.997  0.689  1.000  2.065  2.159  1.588  0.825  0.250  0.071  0.014
55555.6   00  2.4200 -6.200e-01  0.400  0.900    0.20  0.0405  0.030  0.402  0.001  0.002  1.000  0.005  0.500  0.001  0.000  0.000  0.000  0.000
23529.4   00  2.8810 -9.354e-01  0.400  0.900    0.20  0.0612  0.046  0.402  0.004  0.005  1.000  0.014  0.500  0.001  0.000  0.000  0.000  0.000
17699.1   00  1.6276 -4.238e-01  0.400  0.900    0.20  0.1099  0.082  0.402  0.002  0.005  1.000  0.014  0.500  0.002  0.000  0.000  0.000  0.000
15037.6   00  1.5047 -2.635e-01  0.400  0.900    0.20  0.0895  0.067  0.402  0.003  0.006  1.000  0.019  0.500  0.004  0.000  0.000  0.000  0.000
13157.9   00  2.0100 -3.089e-01  0.400  0.900    0.20  0.0788  0.059  0.402  0.013  0.011  1.000  0.032  0.500  0.005  0.000  0.000  0.000  0.000
11111.1   00  1.8279 -2.169e-01  0.400  0.900    0.20  0.0806  0.060  0.402  0.020  0.014  1.000  0.040  0.500  0.006  0.000  0.000  0.000  0.000
 9708.7   00  3.0062 -6.774e-01  0.400  0.900    0.20  0.1257  0.093  0.402  0.065  0.031  1.000  0.094  0.501  0.008  0.000  0.000  0.000  0.000
 8849.6   00  1.4979 -3.619e-01  0.400  0.900    0.20  0.2148  0.160  0.402  0.013  0.018  1.000  0.054  0.501  0.010  0.000  0.000  0.000  0.000
 7782.1   00  1.2660 -9.247e-02  0.400  0.900    0.20  0.0734  0.055  0.402  0.013  0.021  1.000  0.063  0.501  0.013  0.000  0.000  0.000  0.000
 6968.6   00  1.4646 -1.067e-01  0.400  0.900    0.20  0.0865  0.065  0.402  0.056  0.028  1.000  0.086  0.501  0.017  0.000  0.000  0.000  0.000
 6097.6   00  1.4354 -6.038e-02  0.400  0.900    0.20  0.0625  0.046  0.402  0.096  0.037  1.000  0.111  0.502  0.021  0.000  0.000  0.000  0.000
 5154.6   00  1.4734 -2.312e-02  0.400  0.900    0.20  0.0392  0.029  0.402  0.346  0.053  1.000  0.157  0.505  0.030  0.001  0.000  0.000  0.000
 4618.9   00  1.4966 -1.028e-02  0.400  0.900    0.20  0.0358  0.026  0.402  0.630  0.065  1.000  0.197  0.507  0.037  0.001  0.000  0.000  0.000
 4319.7   00  1.5022 -6.666e-03  0.400  0.900    0.20  0.0392  0.029  0.402  0.762  0.075  1.000  0.226  0.510  0.042  0.001  0.000  0.000  0.000
 4016.1   00  1.5002 -6.515e-03  0.400  0.900    0.20  0.0498  0.037  0.402  0.799  0.087  1.000  0.261  0.513  0.049  0.002  0.000  0.000  0.000
 3418.8   00  1.5103 -1.895e-02  0.400  0.900    0.20  0.1132  0.084  0.402  0.684  0.121  1.000  0.364  0.525  0.067  0.004  0.000  0.000  0.000
 3444.7   00  1.5104 -1.870e-02  0.400  0.900    0.20  0.1101  0.082  0.402  0.683  0.119  1.000  0.358  0.524  0.066  0.004  0.000  0.000  0.000
 2777.0   00  1.5228 -3.478e-02  0.400  0.900    0.20  0.2565  0.191  0.402  0.672  0.188  1.000  0.564  0.560  0.102  0.010  0.000  0.000  0.000
 2320.2   00  1.5226 -7.818e-03  0.400  0.900    0.20  0.3580  0.267  0.402  0.921  0.278  1.000  0.833  0.627  0.149  0.019  0.002  0.000  0.000
 2044.2   00  1.5294 -7.515e-03  0.400  0.900    0.20  0.5286  0.394  0.402  0.942  0.371  1.000  1.113  0.730  0.202  0.033  0.003  0.000  0.000
 1778.4   00  1.5301 -6.588e-03  0.400  0.900    0.20  0.7908  0.590  0.402  0.956  0.494  1.000  1.482  0.925  0.286  0.060  0.008  0.001  0.000
 1455.2   00  1.5300 -5.847e-03  0.400  0.900    0.20  1.4160  1.055  0.402  0.969  0.597  1.000  1.790  1.270  0.472  0.146  0.029  0.005  0.000
 1270.3   00  1.5300 -5.362e-03  0.400  0.900    0.20  1.8859  1.405  0.402  0.975  0.622  1.000  1.865  1.552  0.752  0.300  0.072  0.013  0.002
  944.3   00  1.5300 -2.757e-03  0.400  0.900    0.20  3.1134  2.321  0.402  0.988  0.702  1.000  2.106  2.342  1.846  1.074  0.426  0.161  0.035
  693.5   00  1.5294 -4.138e-03  0.400  0.900    0.20  4.0345  3.008  0.402  0.980  0.733  1.000  2.198  2.837  2.761  2.398  1.830  1.159  0.591
  527.1   00  1.5598 -1.634e-03  0.400  0.900    0.20  3.4405  2.565  0.402  0.988  0.649  1.000  1.949  2.634  2.515  2.657  2.484  2.269  1.965
  399.8   00  1.5800 -3.619e-03  0.400  0.900    0.20  2.1918  1.634  0.402  0.941  0.506  1.000  1.518  2.100  1.519  2.107  1.814  2.240  2.084
  329.1   00  1.6010 -5.361e-03  0.400  0.900    0.20  2.4367  1.816  0.402  0.898  0.652  1.000  1.956  2.891  2.947  3.826  3.700  4.225  3.845
  229.8   00  1.5191 -3.320e-02  0.400  0.900    0.20  2.5004  1.864  0.402  0.625  0.858  1.000  2.572  3.881  4.888  5.877  6.539  7.099  7.385
 7082.2   00  1.4680 -1.212e-01  0.400  0.900    0.20  0.0970  0.072  0.402  0.045  0.028  1.000  0.083  0.501  0.016  0.000  0.000  0.000  0.000
  300.0   00  1.6000 -8.701e-03  0.800  0.900    0.20  2.3459  0.860  0.818  0.784  0.804  1.000  2.411  3.560  4.213  5.255  5.832  6.783  7.227
  400.0   00  1.5800 -3.600e-03  0.800  0.900    0.20  2.3417  0.858  0.818  0.907  0.741  1.000  2.223  3.180  3.372  4.151  4.298  5.044  5.206
  440.0   00  1.5756 -2.759e-03  0.800  0.900    0.20  2.3871  0.875  0.818  0.930  0.735  1.000  2.207  3.164  3.323  4.040  4.041  4.653  4.644
  500.0   00  1.5640 -1.800e-03  0.800  0.900    0.20  2.5758  0.944  0.818  0.960  0.734  1.000  2.201  3.248  3.495  4.317  4.295  4.839  4.667
  550.0   00  1.5580 -1.400e-03  0.800  0.900    0.20  2.6226  0.961  0.818  0.971  0.714  1.000  2.142  3.213  3.457  4.381  4.388  4.957  4.747
  600.0   00  1.5530 -1.100e-03  0.800  0.900    0.20  2.4688  0.905  0.818  0.978  0.662  1.000  1.987  2.992  3.061  4.004  3.935  4.526  4.272
  675.0   00  1.5278 -4.597e-03  0.800  0.900    0.20  2.1222  0.778  0.818  0.912  0.573  1.000  1.721  2.439  2.093  2.766  2.625  3.074  3.028
  800.0   00  1.5300 -4.000e-03  0.800  0.900    0.20  2.3297  0.854  0.818  0.941  0.557  1.000  1.672  2.247  1.787  2.165  2.027  2.287  2.397
  870.0   00  1.5301 -4.265e-03  0.800  0.900    0.20  2.6650  0.977  0.818  0.951  0.600  1.000  1.800  2.421  2.123  2.406  2.326  2.444  2.489
 1000.0   00  1.5300 -1.000e-03  0.800  0.900    0.20  3.3793  1.239  0.818  0.992  0.662  1.000  1.986  2.705  2.617  2.795  2.689  2.532  2.295
 1020.0   00  1.5300 -6.722e-04  0.800  0.900    0.20  3.4723  1.273  0.818  0.996  0.669  1.000  2.008  2.735  2.667  2.828  2.704  2.504  2.224
55555.6   00  2.4200 -6.200e-01  0.800  0.900    0.20  0.0852  0.031  0.818  0.007  0.007  1.000  0.022  0.500  0.003  0.000  0.000  0.000  0.000
23529.4   00  2.8810 -9.354e-01  0.800  0.900    0.20  0.1396  0.051  0.818  0.029  0.020  1.000  0.058  0.500  0.005  0.000  0.000  0.000  0.000
17699.1   00  1.6276 -4.238e-01  0.800  0.900    0.20  0.2366  0.087  0.818  0.016  0.019  1.000  0.058  0.501  0.010  0.000  0.000  0.000  0.000
15037.6   00  1.5047 -2.635e-01  0.800  0.900    0.20  0.1941  0.071  0.818  0.023  0.026  1.000  0.077  0.501  0.015  0.000  0.000  0.000  0.000
13157.9   00  2.0100 -3.089e-01  0.800  0.900    0.20  0.1995  0.073  0.818  0.092  0.044  1.000  0.131  0.503  0.018  0.000  0.000  0.000  0.000
11111.1   00  1.8279 -2.169e-01  0.800  0.900    0.20  0.2115  0.078  0.818  0.140  0.056  1.000  0.166  0.505  0.025  0.001  0.000  0.000  0.000
 9708.7   00  3.0062 -6.774e-01  0.800  0.900    0.20  0.5726  0.209  0.818  0.290  0.136  1.000  0.408  0.514  0.029  0.001  0.000  0.000  0.000
 8849.6   00  1.4979 -3.619e-01  0.800  0.900    0.20  0.5138  0.188  0.818  0.086  0.075  1.000  0.226  0.509  0.042  0.001  0.000  0.000  0.000
 7782.1   00  1.2660 -9.247e-02  0.800  0.900    0.20  0.1745  0.064  0.818  0.084  0.088  1.000  0.265  0.515  0.057  0.003  0.000  0.000  0.000
 6968.6   00  1.4646 -1.067e-01  0.800  0.900    0.20  0.2551  0.093  0.818  0.280  0.120  1.000  0.358  0.525  0.068  0.004  0.000  0.000  0.000
 6097.6   00  1.4354 -6.038e-02  0.800  0.900    0.20  0.2276  0.084  0.818  0.407  0.155  1.000  0.465  0.542  0.090  0.006  0.000  0.000  0.000
 5154.6   00  1.4734 -2.312e-02  0.800  0.900    0.20  0.2634  0.097  0.818  0.751  0.223  1.000  0.671  0.586  0.126  0.013  0.001  0.000  0.000
 4618.9   00  1.4966 -1.028e-02  0.800  0.900    0.20  0.3498  0.128  0.818  0.899  0.287  1.000  0.861  0.641  0.159  0.021  0.002  0.000  0.000
 4319.7   00  1.5022 -6.666e-03  0.800  0.900    0.20  0.4219  0.154  0.818  0.940  0.334  1.000  1.002  0.691  0.186  0.027  0.003  0.000  0.000
 4016.1   00  1.5002 -6.515e-03  0.800  0.900    0.20  0.5181  0.190  0.818  0.946  0.392  1.000  1.175  0.765  0.223  0.038  0.004  0.000  0.000
 3418.8   00  1.5103 -1.895e-02  0.800  0.900    0.20  0.9163  0.336  0.818  0.884  0.530  1.000  1.591  1.018  0.336  0.080  0.011  0.001  0.000
 3444.7   00  1.5104 -1.870e-02  0.800  0.900    0.20  0.8961  0.328  0.818  0.884  0.525  1.000  1.575  1.004  0.330  0.077  0.011  0.001  0.000
 2777.0   00  1.5228 -3.478e-02  0.800  0.900    0.20  1.6668  0.611  0.818  0.844  0.621  1.000  1.861  1.421  0.618  0.220  0.053  0.011  0.001
 2320.2   00  1.5226 -7.818e-03  0.800  0.900    0.20  2.2681  0.832  0.818  0.965  0.659  1.000  1.975  1.854  1.126  0.502  0.111  0.015  0.003
 2044.2   00  1.5294 -7.515e-03  0.800  0.900    0.20  2.8444  1.043  0.818  0.969  0.691  1.000  2.073  2.194  1.619  0.856  0.277  0.084  0.018
 1778.4   00  1.5301 -6.588e-03  0.800  0.900    0.20  3.4252  1.256  0.818  0.972  0.720  1.000  2.160  2.527  2.155  1.426  0.743  0.327  0.074
 1455.2   00  1.5300 -5.847e-03  0.800  0.900    0.20  3.9725  1.456  0.818  0.973  0.735  1.000  2.205  2.808  2.705  2.256  1.642  0.964  0.426
 1270.3   00  1.5300 -5.362e-03  0.800  0.900    0.20  4.0532  1.486  0.818  0.971  0.729  1.000  2.188  2.898  2.926  2.738  2.323  1.660  1.044
  944.3   00  1.5300 -2.757e-03  0.800  0.900    0.20  3.0847  1.131  0.818  0.972  0.640  1.000  1.919  2.605  2.451  2.668  2.599  2.556  2.444
  693.5   00  1.5294 -4.138e-03  0.800  0.900    0.20  2.1103  0.774  0.818  0.922  0.558  1.000  1.676  2.347  1.929  2.551  2.375  2.808  2.772
  527.1   00  1.5598 -1.634e-03  0.800  0.900    0.20  2.6250  0.962  0.818  0.966  0.727  1.000  2.180  3.249  3.514  4.396  4.401  4.953  4.762
  399.8   00  1.5800 -3.619e-03  0.800  0.900    0.20  2.3413  0.858  0.818  0.907  0.741  1.000  2.223  3.181  3.373  4.153  4.301  5.048  5.210
  329.1   00  1.6010 -5.361e-03  0.800  0.900    0.20  2.3207  0.851  0.818  0.837  0.770  1.000  2.309  3.352  3.776  4.734  5.124  6.015  6.299
  229.8   00  1.5191 -3.320e-02  0.800  0.900    0.20  2.2535  0.826  0.818  0.535  0.926  1.000  2.779  4.378  5.860  7.238  8.548  9.724 10.822
 7082.2   00  1.4680 -1.212e-01  0.800  0.900    0.20  0.2774  0.101  0.818  0.240  0.116  1.000  0.348  0.523  0.066  0.004  0.000  0.000  0.000
  300.0   00  1.6000 -8.701e-03  1.500  0.900    0.20  2.1925  0.416  1.491  0.694  0.861  1.000  2.582  3.893  4.901  6.101  7.097  8.288  9.215
  400.0   00  1.5800 -3.600e-03  1.500  0.900    0.20  2.2457  0.426  1.491  0.860  0.793  1.000  2.380  3.497  3.982  5.010  5.498  6.555  7.020
  440.0   00  1.5756 -2.759e-03  1.500  0.900    0.20  2.2701  0.430  1.491  0.893  0.780  1.000  2.340  3.435  3.834  4.826  5.194  6.200  6.569
  500.0   00  1.5640 -1.800e-03  1.500  0.900    0.20  2.2311  0.423  1.491  0.933  0.751  1.000  2.254  3.307  3.553  4.516  4.696  5.586  5.720
  550.0   00  1.5580 -1.400e-03  1.500  0.900    0.20  2.3682  0.449  1.491  0.953  0.752  1.000  2.256  3.339  3.617  4.635  4.902  5.843  6.053
  600.0   00  1.5530 -1.100e-03  1.500  0.900    0.20  2.3919  0.454  1.491  0.964  0.746  1.000  2.237  3.288  3.523  4.492  4.768  5.704  5.996
  675.0   00  1.5278 -4.597e-03  1.500  0.900    0.20  2.1991  0.417  1.491  0.873  0.758  1.000  2.276  3.222  3.417  4.057  4.176  4.781  5.018
  800.0   00  1.5300 -4.000e-03  1.500  0.900    0.20  2.4811  0.471  1.491  0.909  0.770  1.000  2.310  3.375  3.717  4.466  4.537  5.043  5.045
  870.0   00  1.5301 -4.265e-03  1.500  0.900    0.20  2.6861  0.510  1.491  0.915  0.776  1.000  2.330  3.476  3.942  4.838  5.019  5.580  5.579
 1000.0   00  1.5300 -1.000e-03  1.500  0.900    0.20  2.6284  0.499  1.491  0.980  0.710  1.000  2.131  3.233  3.494  4.484  4.576  5.164  5.046
 1020.0   00  1.5300 -6.722e-04  1.500  0.900    0.20  2.5802  0.490  1.491  0.986  0.694  1.000  2.084  3.158  3.354  4.333  4.392  4.972  4.837
55555.6   00  2.4200 -6.200e-01  1.500  0.900    0.20  0.1735  0.033  1.491  0.039  0.023  1.000  0.070  0.501  0.008  0.000  0.000  0.000  0.000
23529.4   00  2.8810 -9.354e-01  1.500  0.900    0.20  0.3644  0.069  1.491  0.132  0.061  1.000  0.184  0.504  0.016  0.000  0.000  0.000  0.000
17699.1   00  1.6276 -4.238e-01  1.500  0.900    0.20  0.5067  0.096  1.491  0.081  0.062  1.000  0.185  0.506  0.033  0.001  0.000  0.000  0.000
15037.6   00  1.5047 -2.635e-01  1.500  0.900    0.20  0.4250  0.081  1.491  0.108  0.082  1.000  0.248  0.512  0.047  0.002  0.000  0.000  0.000
13157.9   00  2.0100 -3.089e-01  1.500  0.900    0.20  0.6692  0.127  1.491  0.320  0.143  1.000  0.431  0.526  0.054  0.003  0.000  0.000  0.000
11111.1   00  1.8279 -2.169e-01  1.500  0.900    0.20  0.7414  0.141  1.491  0.409  0.188  1.000  0.563  0.548  0.079  0.006  0.000  0.000  0.000
 9708.7   00  3.0062 -6.774e-01  1.500  0.900    0.20  3.5065  0.666  1.491  0.491  0.262  1.000  0.785  0.554  0.076  0.007  0.000  0.000  0.000
 8849.6   00  1.4979 -3.619e-01  1.500  0.900    0.20  1.2360  0.234  1.491  0.249  0.263  1.000  0.788  0.610  0.151  0.019  0.001  0.000  0.000
 7782.1   00  1.2660 -9.247e-02  1.500  0.900    0.20  0.4280  0.082  1.491  0.262  0.298  1.000  0.894  0.665  0.203  0.032  0.003  0.000  0.000
 6968.6   00  1.4646 -1.067e-01  1.500  0.900    0.20  0.8344  0.158  1.491  0.540  0.420  1.000  1.259  0.800  0.256  0.049  0.006  0.000  0.000
 6097.6   00  1.4354 -6.038e-02  1.500  0.900    0.20  0.8645  0.164  1.491  0.651  0.526  1.000  1.579  1.011  0.363  0.087  0.012  0.001  0.000
 5154.6   00  1.4734 -2.312e-02  1.500  0.900    0.20  1.3055  0.247  1.491  0.873  0.625  1.000  1.876  1.364  0.545  0.172  0.033  0.005  0.001
 4618.9   00  1.4966 -1.028e-02  1.500  0.900    0.20  1.7843  0.338  1.491  0.949  0.638  1.000  1.914  1.586  0.747  0.287  0.066  0.011  0.002
 4319.7   00  1.5022 -6.666e-03  1.500  0.900    0.20  2.0585  0.391  1.491  0.969  0.648  1.000  1.942  1.758  0.962  0.413  0.104  0.020  0.003
 4016.1   00  1.5002 -6.515e-03  1.500  0.900    0.20  2.3145  0.439  1.491  0.971  0.668  1.000  2.006  1.982  1.269  0.601  0.167  0.037  0.006
 3418.8   00  1.5103 -1.895e-02  1.500  0.900    0.20  3.0351  0.576  1.491  0.923  0.729  1.000  2.186  2.461  1.994  1.155  0.456  0.161  0.036
 3444.7   00  1.5104 -1.870e-02  1.500  0.900    0.20  3.0051  0.570  1.491  0.924  0.727  1.000  2.180  2.443  1.963  1.125  0.434  0.151  0.033
 2777.0   00  1.5228 -3.478e-02  1.500  0.900    0.20  3.7352  0.709  1.491  0.871  0.763  1.000  2.286  2.867  2.757  2.194  1.476  0.751  0.243
 2320.2   00  1.5226 -7.818e-03  1.500  0.900    0.20  4.0754  0.774  1.491  0.956  0.742  1.000  2.226  2.963  3.025  2.864  2.438  1.727  1.054
 2044.2   00  1.5294 -7.515e-03  1.500  0.900    0.20  3.8615  0.733  1.491  0.953  0.716  1.000  2.147  2.916  2.987  3.059  2.875  2.449  1.931
 1778.4   00  1.5301 -6.588e-03  1.500  0.900    0.20  3.2481  0.616  1.491  0.944  0.665  1.000  1.994  2.714  2.665  2.881  2.845  2.794  2.646
 1455.2   00  1.5300 -5.847e-03  1.500  0.900    0.20  2.2580  0.428  1.491  0.911  0.545  1.000  1.634  2.189  1.693  2.061  1.952  2.237  2.417
 1270.3   00  1.5300 -5.362e-03  1.500  0.900    0.20  2.0014  0.380  1.491  0.897  0.539  1.000  1.616  2.222  1.709  2.289  2.087  2.467  2.437
  944.3   00  1.5300 -2.757e-03  1.500  0.900    0.20  2.7221  0.517  1.491  0.948  0.750  1.000  2.251  3.403  3.817  4.802  4.979  5.571  5.518
  693.5   00  1.5294 -4.138e-03  1.500  0.900    0.20  2.1986  0.417  1.491  0.886  0.753  1.000  2.261  3.196  3.357  3.972  4.023  4.579  4.741
  527.1   00  1.5598 -1.634e-03  1.500  0.900    0.20  2.2960  0.435  1.491  0.943  0.751  1.000  2.252  3.320  3.578  4.568  4.782  5.688  5.840
  399.8   00  1.5800 -3.619e-03  1.500  0.900    0.20  2.2458  0.426  1.491  0.860  0.793  1.000  2.380  3.498  3.984  5.013  5.502  6.559  7.025
  329.1   00  1.6010 -5.361e-03  1.500  0.900    0.20  2.2253  0.422  1.491  0.753  0.836  1.000  2.508  3.726  4.539  5.663  6.468  7.591  8.329
  229.8   00  1.5191 -3.320e-02  1.500  0.900    0.20  2.1779  0.414  1.491  0.517  0.953  1.000  2.858  4.664  6.416  8.081  9.710 11.249 12.754
 7082.2   00  1.4680 -1.212e-01  1.500  0.900    0.20  0.8707  0.165  1.491  0.494  0.409  1.000  1.226  0.783  0.247  0.046  0.005  0.000  0.000
  300.0   00  1.6000 -8.701e-03  2.500  0.900    0.20  2.1427  0.251  2.417  0.627  0.899  1.000  2.698  4.194  5.526  6.930  8.263  9.655 10.931
  400.0   00  1.5800 -3.600e-03  2.500  0.900    0.20  2.1881  0.256  2.417  0.805  0.831  1.000  2.493  3.713  4.426  5.563  6.301  7.494  8.213
  440.0   00  1.5756 -2.759e-03  2.500  0.900    0.20  2.2232  0.260  2.417  0.850  0.817  1.000  2.451  3.640  4.240  5.346  5.978  7.152  7.776
  500.0   00  1.5640 -1.800e-03  2.500  0.900    0.20  2.1613  0.253  2.417  0.902  0.788  1.000  2.363  3.481  3.872  4.901  5.294  6.375  6.792
  550.0   00  1.5580 -1.400e-03  2.500  0.900    0.20  2.2699  0.266  2.417  0.930  0.786  1.000  2.357  3.499  3.897  4.971  5.373  6.463  6.862
  600.0   00  1.5530 -1.100e-03  2.500  0.900    0.20  2.1559  0.252  2.417  0.944  0.764  1.000  2.293  3.361  3.606  4.583  4.849  5.859  6.157
  675.0   00  1.5278 -4.597e-03  2.500  0.900    0.20  2.3252  0.272  2.417  0.837  0.822  1.000  2.464  3.658  4.285  5.294  5.861  6.839  7.441
  800.0   00  1.5300 -4.000e-03  2.500  0.900    0.20  2.2184  0.260  2.417  0.866  0.778  1.000  2.333  3.430  3.822  4.783  5.125  5.970  6.251
  870.0   00  1.5301 -4.265e-03  2.500  0.900    0.20  2.4036  0.282  2.417  0.877  0.789  1.000  2.368  3.510  4.000  5.026  5.520  6.467  6.916
 1000.0   00  1.5300 -1.000e-03  2.500  0.900    0.20  2.3256  0.272  2.417  0.967  0.747  1.000  2.240  3.250  3.432  4.267  4.496  5.334  5.694
 1020.0   00  1.5300 -6.722e-04  2.500  0.900    0.20  2.2938  0.268  2.417  0.975  0.740  1.000  2.220  3.205  3.336  4.128  4.295  5.093  5.408
55555.6   00  2.4200 -6.200e-01  2.500  0.900    0.20  0.3691  0.043  2.417  0.132  0.060  1.000  0.180  0.504  0.020  0.000  0.000  0.000  0.000
23529.4   00  2.8810 -9.354e-01  2.500  0.900    0.20  1.2094  0.142  2.417  0.309  0.152  1.000  0.455  0.520  0.040  0.002  0.000  0.000  0.000
17699.1   00  1.6276 -4.238e-01  2.500  0.900    0.20  1.0673  0.125  2.417  0.225  0.169  1.000  0.506  0.544  0.087  0.007  0.000  0.000  0.000
15037.6   00  1.5047 -2.635e-01  2.500  0.900    0.20  0.9075  0.106  2.417  0.269  0.230  1.000  0.689  0.586  0.127  0.014  0.001  0.000  0.000
13157.9   00  2.0100 -3.089e-01  2.500  0.900    0.20  2.2120  0.259  2.417  0.504  0.403  1.000  1.211  0.675  0.147  0.020  0.002  0.000  0.000
11111.1   00  1.8279 -2.169e-01  2.500  0.900    0.20  2.2345  0.261  2.417  0.567  0.507  1.000  1.520  0.838  0.240  0.049  0.006  0.000  0.000
 9708.7   00  3.0062 -6.774e-01  2.500  0.900    0.20  3.0813  0.361  2.417  0.455  0.463  1.000  1.390  0.837  0.590  0.303  0.042  0.005  0.000
 8849.6   00  1.4979 -3.619e-01  2.500  0.900    0.20  2.0481  0.240  2.417  0.364  0.593  1.000  1.778  1.268  0.619  0.209  0.040  0.005  0.001
 7782.1   00  1.2660 -9.247e-02  2.500  0.900    0.20  0.8733  0.102  2.417  0.415  0.664  1.000  1.992  1.567  0.766  0.273  0.063  0.011  0.001
 6968.6   00  1.4646 -1.067e-01  2.500  0.900    0.20  1.9620  0.230  2.417  0.664  0.689  1.000  2.067  1.919  1.079  0.453  0.122  0.023  0.003
 6097.6   00  1.4354 -6.038e-02  2.500  0.900    0.20  2.1067  0.246  2.417  0.756  0.725  1.000  2.176  2.304  1.602  0.799  0.264  0.068  0.013
 5154.6   00  1.4734 -2.312e-02  2.500  0.900    0.20  3.0413  0.356  2.417  0.904  0.758  1.000  2.273  2.652  2.281  1.441  0.654  0.253  0.063
 4618.9   00  1.4966 -1.028e-02  2.500  0.900    0.20  3.5930  0.420  2.417  0.956  0.749  1.000  2.246  2.799  2.581  1.958  1.209  0.590  0.170
 4319.7   00  1.5022 -6.666e-03  2.500  0.900    0.20  3.8841  0.455  2.417  0.970  0.750  1.000  2.250  2.888  2.789  2.316  1.637  0.878  0.301
 4016.1   00  1.5002 -6.515e-03  2.500  0.900    0.20  4.0659  0.476  2.417  0.970  0.758  1.000  2.276  2.972  3.006  2.664  2.069  1.232  0.542
 3418.8   00  1.5103 -1.895e-02  2.500  0.900    0.20  3.9147  0.458  2.417  0.901  0.756  1.000  2.269  3.073  3.228  3.234  2.966  2.409  1.765
 3444.7   00  1.5104 -1.870e-02  2.500  0.900    0.20  3.9232  0.459  2.417  0.903  0.756  1.000  2.270  3.070  3.220  3.210  2.924  2.350  1.699
 2777.0   00  1.5228 -3.478e-02  2.500  0.900    0.20  2.9851  0.350  2.417  0.773  0.716  1.000  2.151  2.906  3.060  3.280  3.380  3.354  3.302
 2320.2   00  1.5226 -7.818e-03  2.500  0.900    0.20  2.2778  0.267  2.417  0.860  0.562  1.000  1.686  2.240  1.820  2.193  2.106  2.394  2.550
 2044.2   00  1.5294 -7.515e-03  2.500  0.900    0.20  1.9758  0.232  2.417  0.853  0.539  1.000  1.617  2.216  1.740  2.346  2.115  2.553  2.437
 1778.4   00  1.5301 -6.588e-03  2.500  0.900    0.20  2.3234  0.272  2.417  0.878  0.666  1.000  1.997  2.973  3.069  3.973  4.000  4.547  4.342
 1455.2   00  1.5300 -5.847e-03  2.500  0.900    0.20  2.7464  0.321  2.417  0.891  0.786  1.000  2.357  3.539  4.088  5.038  5.279  5.861  5.877
 1270.3   00  1.5300 -5.362e-03  2.500  0.900    0.20  2.3904  0.279  2.417  0.876  0.773  1.000  2.319  3.347  3.673  4.349  4.395  4.851  4.848
  944.3   00  1.5300 -2.757e-03  2.500  0.900    0.20  2.4263  0.284  2.417  0.923  0.774  1.000  2.321  3.417  3.797  4.760  5.187  6.124  6.598
  693.5   00  1.5294 -4.138e-03  2.500  0.900    0.20  2.2828  0.267  2.417  0.852  0.809  1.000  2.425  3.588  4.133  5.117  5.595  6.531  7.031
  527.1   00  1.5598 -1.634e-03  2.500  0.900    0.20  2.2317  0.261  2.417  0.916  0.789  1.000  2.365  3.503  3.910  4.970  5.374  6.461  6.874
  399.8   00  1.5800 -3.619e-03  2.500  0.900    0.20  2.1880  0.256  2.417  0.805  0.831  1.000  2.493  3.714  4.428  5.566  6.305  7.498  8.219
  329.1   00  1.6010 -5.361e-03  2.500  0.900    0.20  2.1607  0.253  2.417  0.677  0.879  1.000  2.637  4.021  5.157  6.447  7.606  8.914 10.026
  229.8   00  1.5191 -3.320e-02  2.500  0.900    0.20  2.1256  0.249  2.417  0.527  0.954  1.000  2.861  4.701  6.498  8.241  9.953 11.615 13.249
 7082.2   00  1.4680 -1.212e-01  2.500  0.900    0.20  1.9717  0.231  2.417  0.624  0.688  1.000  2.065  1.885  1.046  0.433  0.115  0.022  0.003
  300.0   00  1.6000 -8.701e-03  4.000  0.900    0.20  2.1045  0.160  3.721  0.582  0.923  1.000  2.769  4.422  5.990  7.568  9.129 10.687 12.200
  400.0   00  1.5800 -3.600e-03  4.000  0.900    0.20  2.1191  0.161  3.721  0.742  0.860  1.000  2.580  3.887  4.812  6.027  7.005  8.295  9.268
  440.0   00  1.5756 -2.759e-03  4.000  0.900    0.20  2.1222  0.162  3.721  0.792  0.841  1.000  2.523  3.766  4.521  5.673  6.483  7.727  8.543
  500.0   00  1.5640 -1.800e-03  4.000  0.900    0.20  2.1338  0.162  3.721  0.865  0.817  1.000  2.450  3.636  4.184  5.281  5.874  7.068  7.686
  550.0   00  1.5580 -1.400e-03  4.000  0.900    0.20  2.1247  0.162  3.721  0.897  0.803  1.000  2.409  3.562  4.009  5.070  5.556  6.708  7.235
  600.0   00  1.5530 -1.100e-03  4.000  0.900    0.20  2.2094  0.168  3.721  0.925  0.801  1.000  2.402  3.575  4.016  5.102  5.567  6.724  7.229
  675.0   00  1.5278 -4.597e-03  4.000  0.900    0.20  2.2014  0.167  3.721  0.778  0.849  1.000  2.547  3.807  4.600  5.695  6.494  7.621  8.455
  800.0   00  1.5300 -4.000e-03  4.000  0.900    0.20  2.2790  0.173  3.721  0.829  0.831  1.000  2.492  3.724  4.406  5.501  6.179  7.267  7.947
  870.0   00  1.5301 -4.265e-03  4.000  0.900    0.20  2.1793  0.165  3.721  0.822  0.818  1.000  2.452  3.616  4.189  5.192  5.779  6.797  7.399
 1000.0   00  1.5300 -1.000e-03  4.000  0.900    0.20  2.3460  0.178  3.721  0.956  0.786  1.000  2.357  3.499  3.879  4.866  5.226  6.227  6.696
 1020.0   00  1.5300 -6.722e-04  4.000  0.900    0.20  2.3796  0.181  3.721  0.972  0.783  1.000  2.349  3.496  3.866  4.863  5.204  6.205  6.656
55555.6   00  2.4200 -6.200e-01  4.000  0.900    0.20  0.9692  0.074  3.721  0.299  0.144  1.000  0.431  0.521  0.044  0.002  0.000  0.000  0.000
23529.4   00  2.8810 -9.354e-01  4.000  0.900    0.20  3.3897  0.258  3.721  0.469  0.232  1.000  0.696  0.553  0.088  0.009  0.001  0.000  0.000
17699.1   00  1.6276 -4.238e-01  4.000  0.900    0.20  1.9498  0.148  3.721  0.366  0.432  1.000  1.295  0.784  0.259  0.050  0.006  0.000  0.000
15037.6   00  1.5047 -2.635e-01  4.000  0.900    0.20  1.6831  0.128  3.721  0.400  0.551  1.000  1.654  1.045  0.409  0.106  0.016  0.002  0.000
13157.9   00  2.0100 -3.089e-01  4.000  0.900    0.20  3.2690  0.249  3.721  0.569  0.588  1.000  1.764  1.291  0.741  0.285  0.049  0.006  0.001
11111.1   00  1.8279 -2.169e-01  4.000  0.900    0.20  3.3849  0.258  3.721  0.613  0.670  1.000  2.010  1.880  1.284  0.574  0.139  0.028  0.004
 9708.7   00  3.0062 -6.774e-01  4.000  0.900    0.20  2.8698  0.218  3.721  0.508  0.636  1.000  1.907  2.079  1.481  0.926  0.540  0.200  0.044
 8849.6   00  1.4979 -3.619e-01  4.000  0.900    0.20  2.4418  0.186  3.721  0.424  0.763  1.000  2.289  2.677  2.174  1.314  0.607  0.204  0.047
 7782.1   00  1.2660 -9.247e-02  4.000  0.900    0.20  1.4906  0.114  3.721  0.538  0.807  1.000  2.423  2.901  2.471  1.545  0.729  0.268  0.074
 6968.6   00  1.4646 -1.067e-01  4.000  0.900    0.20  3.0885  0.234  3.721  0.696  0.810  1.000  2.430  3.095  3.008  2.383  1.490  0.702  0.228
 6097.6   00  1.4354 -6.038e-02  4.000  0.900    0.20  3.3229  0.253  3.721  0.775  0.823  1.000  2.469  3.249  3.389  3.008  2.303  1.364  0.608
 5154.6   00  1.4734 -2.312e-02  4.000  0.900    0.20  3.8803  0.295  3.721  0.888  0.787  1.000  2.361  3.210  3.461  3.451  3.179  2.562  1.848
 4618.9   00  1.4966 -1.028e-02  4.000  0.900    0.20  3.7289  0.284  3.721  0.930  0.736  1.000  2.209  3.031  3.187  3.344  3.282  3.058  2.708
 4319.7   00  1.5022 -6.666e-03  4.000  0.900    0.20  3.3815  0.258  3.721  0.945  0.689  1.000  2.067  2.850  2.885  3.093  3.105  3.048  2.978
 4016.1   00  1.5002 -6.515e-03  4.000  0.900    0.20  2.9716  0.226  3.721  0.935  0.654  1.000  1.964  2.685  2.608  2.842  2.905  2.956  3.110
 3418.8   00  1.5103 -1.895e-02  4.000  0.900    0.20  2.2055  0.168  3.721  0.748  0.597  1.000  1.793  2.361  2.051  2.383  2.411  2.677  2.968
 3444.7   00  1.5104 -1.870e-02  4.000  0.900    0.20  2.2171  0.169  3.721  0.754  0.596  1.000  1.788  2.357  2.047  2.379  2.397  2.680  2.966
 2777.0   00  1.5228 -3.478e-02  4.000  0.900    0.20  2.3770  0.181  3.721  0.622  0.775  1.000  2.326  3.438  4.071  4.977  5.448  5.876  5.910
 2320.2   00  1.5226 -7.818e-03  4.000  0.900    0.20  2.6777  0.204  3.721  0.850  0.790  1.000  2.372  3.582  4.222  5.203  5.561  6.164  6.215
 2044.2   00  1.5294 -7.515e-03  4.000  0.900    0.20  2.5442  0.194  3.721  0.851  0.800  1.000  2.400  3.533  4.064  4.848  5.044  5.547  5.605
 1778.4   00  1.5301 -6.588e-03  4.000  0.900    0.20  2.0895  0.159  3.721  0.828  0.753  1.000  2.257  3.134  3.259  3.748  3.705  4.124  4.199
 1455.2   00  1.5300 -5.847e-03  4.000  0.900    0.20  2.4245  0.185  3.721  0.849  0.798  1.000  2.394  3.526  4.068  5.060  5.639  6.596  7.177
 1270.3   00  1.5300 -5.362e-03  4.000  0.900    0.20  2.1785  0.166  3.721  0.830  0.782  1.000  2.346  3.435  3.865  4.823  5.210  6.022  6.295
  944.3   00  1.5300 -2.757e-03  4.000  0.900    0.20  2.1930  0.166  3.721  0.880  0.796  1.000  2.388  3.506  3.933  4.880  5.312  6.286  6.789
  693.5   00  1.5294 -4.138e-03  4.000  0.900    0.20  2.1892  0.166  3.721  0.799  0.839  1.000  2.517  3.751  4.471  5.542  6.262  7.363  8.124
  527.1   00  1.5598 -1.634e-03  4.000  0.900    0.20  2.1208  0.161  3.721  0.880  0.809  1.000  2.428  3.593  4.084  5.156  5.689  6.857  7.424
  399.8   00  1.5800 -3.619e-03  4.000  0.900    0.20  2.1191  0.161  3.721  0.742  0.860  1.000  2.581  3.888  4.815  6.031  7.010  8.301  9.275
  329.1   00  1.6010 -5.361e-03  4.000  0.900    0.20  2.1137  0.161  3.721  0.616  0.908  1.000  2.725  4.273  5.686  7.152  8.583 10.054 11.444
  229.8   00  1.5191 -3.320e-02  4.000  0.900    0.20  2.0943  0.159  3.721  0.538  0.951  1.000  2.854  4.688  6.481  8.244  9.982 11.695 13.387
 7082.2   00  1.4680 -1.212e-01  4.000  0.900    0.20  3.0203  0.229  3.721  0.662  0.811  1.000  2.433  3.081  2.978  2.322  1.422  0.658  0.211
