h2so4 RRTMG LUT interpolated from GADS (DAR 09/2013)
V0.1 - contains Fast-J wavelengths but is the same as the original jv_spec.dat values
  w(nm)   RH       N         iK  RgDry  RgWet      Sg       Q  Alpha  r-eff ss-alb  g-sym  pi(0)  pi(1)  pi(2)  pi(3)  pi(4)  pi(5)  pi(6)  pi(7)
  300.0   00  1.4690 -1.000e-08  0.089  0.089    0.60  2.7028  6.939  0.172  1.000  0.718  1.000  2.154  2.663  2.452  2.136  1.703  1.323  1.013
  400.0   00  1.4400 -1.000e-08  0.089  0.089    0.60  1.9939  5.119  0.172  1.000  0.719  1.000  2.156  2.539  2.239  1.811  1.343  0.962  0.673
  440.0   00  1.4330 -9.975e-09  0.089  0.089    0.60  1.7410  4.470  0.172  1.000  0.712  1.000  2.137  2.467  2.127  1.675  1.207  0.843  0.571
  500.0   00  1.4310 -1.000e-08  0.089  0.089    0.60  1.4441  3.707  0.172  1.000  0.697  1.000  2.091  2.338  1.937  1.464  1.010  0.677  0.440
  550.0   00  1.4300 -1.000e-08  0.089  0.089    0.60  1.2369  3.175  0.172  1.000  0.683  1.000  2.049  2.231  1.788  1.306  0.870  0.566  0.355
  600.0   00  1.4290 -1.470e-08  0.089  0.089    0.60  1.0603  2.722  0.172  1.000  0.668  1.000  2.004  2.129  1.649  1.167  0.751  0.475  0.289
  675.0   00  1.4286 -1.606e-08  0.089  0.089    0.60  0.8486  2.178  0.172  1.000  0.645  1.000  1.935  1.983  1.461  0.986  0.603  0.366  0.213
  800.0   00  1.4260 -8.629e-08  0.089  0.089    0.60  0.5892  1.513  0.172  1.000  0.605  1.000  1.816  1.769  1.200  0.752  0.426  0.243  0.132
  870.0   00  1.4254  1.810e-07  0.089  0.089    0.60  0.4861  1.248  0.172  1.000  0.583  1.000  1.749  1.663  1.078  0.648  0.353  0.194  0.102
 1000.0   00  1.4220 -1.530e-06  0.089  0.089    0.60  0.3428  0.880  0.172  1.000  0.542  1.000  1.627  1.490  0.891  0.498  0.253  0.131  0.065
 1020.0   00  1.4213  2.224e-08  0.089  0.089    0.60  0.3251  0.834  0.172  1.000  0.536  1.000  1.609  1.466  0.866  0.479  0.241  0.124  0.061
55555.6   00  1.9000 -1.900e-01  0.089  0.089    0.60  0.0085  0.022  0.172  0.000  0.002  1.000  0.007  0.500  0.001  0.000  0.000  0.000  0.000
23529.4   00  1.9155 -1.876e-02  0.089  0.089    0.60  0.0000  0.000  0.172  0.006  0.006  1.000  0.016  0.500  0.003  0.000  0.000  0.000  0.000
17699.1   00  1.8923 -2.355e-01  0.089  0.089    0.60  0.0229  0.059  0.172  0.007  0.009  1.000  0.027  0.500  0.004  0.000  0.000  0.000  0.000
15037.6   00  1.5858 -2.122e-01  0.089  0.089    0.60  0.0287  0.074  0.172  0.002  0.011  1.000  0.033  0.501  0.006  0.000  0.000  0.000  0.000
13157.9   00  1.6817 -1.958e-01  0.089  0.089    0.60  0.0280  0.071  0.172  0.003  0.016  1.000  0.046  0.501  0.008  0.000  0.000  0.000  0.000
11111.1   00  1.7044 -4.858e-01  0.089  0.089    0.60  0.0812  0.209  0.172  0.003  0.020  1.000  0.061  0.502  0.011  0.000  0.000  0.000  0.000
 9708.7   00  1.8565 -7.444e-01  0.089  0.089    0.60  0.1222  0.314  0.172  0.006  0.027  1.000  0.081  0.503  0.013  0.000  0.000  0.000  0.000
 8849.6   00  1.6203 -7.152e-01  0.089  0.089    0.60  0.1569  0.403  0.172  0.005  0.028  1.000  0.084  0.503  0.015  0.001  0.000  0.000  0.000
 7782.1   00  1.1366 -4.245e-01  0.089  0.089    0.60  0.1525  0.391  0.172  0.003  0.029  1.000  0.088  0.504  0.021  0.001  0.000  0.000  0.000
 6968.6   00  1.2605 -1.318e-01  0.089  0.089    0.60  0.0487  0.125  0.172  0.005  0.041  1.000  0.121  0.507  0.026  0.001  0.000  0.000  0.000
 6097.6   00  1.4291 -1.816e-01  0.089  0.089    0.60  0.0704  0.181  0.172  0.013  0.056  1.000  0.167  0.513  0.034  0.002  0.000  0.000  0.000
 5154.6   00  1.3446 -1.364e-01  0.089  0.089    0.60  0.0668  0.171  0.172  0.019  0.071  1.000  0.215  0.522  0.046  0.004  0.001  0.000  0.000
 4618.9   00  1.3832 -1.168e-01  0.089  0.089    0.60  0.0639  0.164  0.172  0.032  0.088  1.000  0.265  0.531  0.056  0.006  0.001  0.000  0.000
 4319.7   00  1.3837 -1.240e-01  0.089  0.089    0.60  0.0731  0.188  0.172  0.036  0.098  1.000  0.295  0.538  0.063  0.008  0.001  0.000  0.000
 4016.1   00  1.3844 -1.261e-01  0.089  0.089    0.60  0.0809  0.208  0.172  0.043  0.110  1.000  0.331  0.547  0.072  0.010  0.002  0.000  0.000
 3418.8   00  1.3572 -1.591e-01  0.089  0.089    0.60  0.1233  0.317  0.172  0.047  0.138  1.000  0.412  0.572  0.096  0.016  0.003  0.001  0.000
 3444.7   00  1.3636 -1.595e-01  0.089  0.089    0.60  0.1223  0.314  0.172  0.047  0.136  1.000  0.409  0.570  0.095  0.016  0.003  0.001  0.000
 2777.0   00  1.3064 -4.726e-02  0.089  0.089    0.60  0.0526  0.135  0.172  0.341  0.188  1.000  0.563  0.634  0.149  0.033  0.009  0.002  0.000
 2320.2   00  1.3633  4.055e-03  0.089  0.089    0.60  0.0175  0.045  0.172  0.917  0.249  1.000  0.747  0.723  0.212  0.060  0.017  0.006  0.002
 2044.2   00  1.3818 -5.886e-04  0.089  0.089    0.60  0.0365  0.093  0.172  0.954  0.292  1.000  0.876  0.798  0.268  0.087  0.028  0.010  0.004
 1778.4   00  1.3930 -6.187e-04  0.089  0.089    0.60  0.0594  0.153  0.172  0.986  0.342  1.000  1.025  0.898  0.347  0.129  0.046  0.018  0.007
 1455.2   00  1.4048 -1.276e-04  0.089  0.089    0.60  0.1143  0.293  0.172  0.998  0.415  1.000  1.244  1.075  0.494  0.217  0.089  0.038  0.016
 1270.3   00  1.4122 -1.808e-05  0.089  0.089    0.60  0.1743  0.447  0.172  1.000  0.463  1.000  1.390  1.215  0.619  0.300  0.133  0.062  0.027
  944.3   00  1.4239 -1.739e-06  0.089  0.089    0.60  0.3981  1.022  0.172  1.000  0.559  1.000  1.678  1.560  0.965  0.556  0.291  0.155  0.079
  693.5   00  1.4282 -1.845e-08  0.089  0.089    0.60  0.8029  2.061  0.172  1.000  0.639  1.000  1.917  1.950  1.419  0.946  0.572  0.344  0.198
  527.1   00  1.4306 -9.589e-09  0.089  0.089    0.60  1.3284  3.410  0.172  1.000  0.690  1.000  2.068  2.279  1.854  1.375  0.931  0.614  0.391
  399.8   00  1.4400 -1.000e-08  0.089  0.089    0.60  1.9955  5.123  0.172  1.000  0.719  1.000  2.156  2.539  2.240  1.812  1.344  0.963  0.674
  329.1   00  1.4587 -9.998e-09  0.089  0.089    0.60  2.4982  6.414  0.172  1.000  0.721  1.000  2.164  2.637  2.403  2.042  1.591  1.200  0.891
  229.8   00  1.4860 -1.000e-08  0.089  0.089    0.60  2.9959  7.691  0.172  1.000  0.708  1.000  2.123  2.706  2.535  2.338  1.956  1.624  1.324
 7082.2   00  1.2350 -1.491e-01  0.089  0.089    0.60  0.0550  0.141  0.172  0.004  0.039  1.000  0.115  0.506  0.026  0.001  0.000  0.000  0.000
  300.0   50  1.3920 -1.390e-08  0.089  0.118    0.60  2.7944  5.441  0.227  1.000  0.771  1.000  2.313  3.057  3.083  2.910  2.545  2.149  1.796
  400.0   50  1.3750 -4.760e-09  0.089  0.118    0.60  2.2421  4.366  0.227  1.000  0.774  1.000  2.321  2.960  2.893  2.581  2.127  1.682  1.302
  440.0   50  1.3716 -4.194e-09  0.089  0.118    0.60  2.0216  3.937  0.227  1.000  0.769  1.000  2.307  2.896  2.782  2.429  1.955  1.510  1.139
  500.0   50  1.3690 -4.210e-09  0.089  0.118    0.60  1.7265  3.362  0.227  1.000  0.759  1.000  2.276  2.787  2.599  2.197  1.707  1.276  0.927
  550.0   50  1.3680 -4.830e-09  0.089  0.118    0.60  1.5135  2.947  0.227  1.000  0.748  1.000  2.244  2.691  2.445  2.011  1.519  1.105  0.781
  600.0   50  1.3670 -1.230e-08  0.089  0.118    0.60  1.3255  2.581  0.227  1.000  0.737  1.000  2.210  2.595  2.297  1.840  1.351  0.958  0.659
  675.0   50  1.3660 -2.085e-08  0.089  0.118    0.60  1.0896  2.122  0.227  1.000  0.719  1.000  2.155  2.454  2.086  1.607  1.132  0.775  0.513
  800.0   50  1.3640 -1.110e-07  0.089  0.118    0.60  0.7916  1.541  0.227  1.000  0.686  1.000  2.058  2.232  1.776  1.285  0.848  0.549  0.343
  870.0   50  1.3633  1.010e-06  0.089  0.118    0.60  0.6673  1.299  0.227  1.000  0.667  1.000  2.002  2.116  1.623  1.135  0.723  0.454  0.275
 1000.0   50  1.3610 -2.400e-06  0.089  0.118    0.60  0.4897  0.954  0.227  1.000  0.632  1.000  1.896  1.920  1.379  0.906  0.543  0.324  0.186
 1020.0   50  1.3605  4.563e-06  0.089  0.118    0.60  0.4672  0.910  0.227  1.000  0.627  1.000  1.880  1.892  1.346  0.876  0.520  0.308  0.175
55555.6   50  1.6630 -2.840e-01  0.089  0.118    0.60  0.0202  0.039  0.227  0.000  0.004  1.000  0.011  0.500  0.002  0.000  0.000  0.000  0.000
23529.4   50  1.6596 -2.404e-01  0.089  0.118    0.60  0.0251  0.049  0.227  0.001  0.008  1.000  0.025  0.500  0.005  0.000  0.000  0.000  0.000
17699.1   50  1.5819 -3.592e-01  0.089  0.118    0.60  0.0550  0.107  0.227  0.002  0.013  1.000  0.040  0.501  0.007  0.000  0.000  0.000  0.000
15037.6   50  1.3838 -3.351e-01  0.089  0.118    0.60  0.0694  0.135  0.227  0.001  0.017  1.000  0.050  0.501  0.010  0.000  0.000  0.000  0.000
13157.9   50  1.3430 -2.745e-01  0.089  0.118    0.60  0.0669  0.130  0.227  0.002  0.022  1.000  0.064  0.502  0.014  0.000  0.000  0.000  0.000
11111.1   50  1.3450 -2.413e-01  0.089  0.118    0.60  0.0702  0.137  0.227  0.003  0.029  1.000  0.088  0.504  0.019  0.001  0.000  0.000  0.000
 9708.7   50  1.4557 -2.952e-01  0.089  0.118    0.60  0.0918  0.179  0.227  0.007  0.039  1.000  0.118  0.507  0.023  0.001  0.000  0.000  0.000
 8849.6   50  1.3928 -2.799e-01  0.089  0.118    0.60  0.1000  0.195  0.227  0.007  0.045  1.000  0.136  0.508  0.028  0.002  0.000  0.000  0.000
 7782.1   50  1.2406 -1.734e-01  0.089  0.118    0.60  0.0772  0.150  0.227  0.007  0.053  1.000  0.159  0.513  0.036  0.002  0.000  0.000  0.000
 6968.6   50  1.2906 -6.312e-02  0.089  0.118    0.60  0.0315  0.062  0.227  0.022  0.068  1.000  0.202  0.519  0.045  0.004  0.000  0.000  0.000
 6097.6   50  1.3559 -1.307e-01  0.089  0.118    0.60  0.0721  0.140  0.227  0.026  0.087  1.000  0.260  0.530  0.056  0.006  0.001  0.000  0.000
 5154.6   50  1.3318 -5.135e-02  0.089  0.118    0.60  0.0365  0.071  0.227  0.073  0.114  1.000  0.342  0.552  0.078  0.011  0.002  0.000  0.000
 4618.9   50  1.3484 -5.167e-02  0.089  0.118    0.60  0.0422  0.082  0.227  0.108  0.136  1.000  0.410  0.572  0.095  0.016  0.003  0.001  0.000
 4319.7   50  1.3538 -5.039e-02  0.089  0.118    0.60  0.0454  0.088  0.227  0.130  0.151  1.000  0.455  0.588  0.108  0.019  0.004  0.001  0.000
 4016.1   50  1.3622 -4.802e-02  0.089  0.118    0.60  0.0488  0.095  0.227  0.165  0.169  1.000  0.508  0.608  0.124  0.025  0.006  0.001  0.000
 3418.8   50  1.3941 -6.889e-02  0.089  0.118    0.60  0.0857  0.167  0.227  0.194  0.213  1.000  0.640  0.662  0.166  0.040  0.010  0.003  0.001
 3444.7   50  1.3926 -6.679e-02  0.089  0.118    0.60  0.0825  0.161  0.227  0.194  0.211  1.000  0.633  0.659  0.163  0.039  0.010  0.003  0.001
 2777.0   50  1.2890 -1.618e-01  0.089  0.118    0.60  0.2100  0.409  0.227  0.364  0.256  1.000  0.766  0.740  0.241  0.074  0.023  0.007  0.003
 2320.2   50  1.3070  2.942e-02  0.089  0.118    0.60  0.0032  0.007  0.227  0.997  0.340  1.000  1.018  0.909  0.365  0.138  0.051  0.021  0.008
 2044.2   50  1.3314  2.636e-03  0.089  0.118    0.60  0.0611  0.119  0.227  0.972  0.386  1.000  1.159  1.019  0.456  0.192  0.077  0.033  0.014
 1778.4   50  1.3412 -9.012e-04  0.089  0.118    0.60  0.1021  0.198  0.227  0.992  0.439  1.000  1.318  1.164  0.583  0.274  0.121  0.056  0.025
 1455.2   50  1.3511 -3.206e-04  0.089  0.118    0.60  0.1860  0.362  0.227  0.997  0.513  1.000  1.540  1.406  0.811  0.436  0.216  0.109  0.054
 1270.3   50  1.3546 -4.998e-05  0.089  0.118    0.60  0.2687  0.523  0.227  1.000  0.560  1.000  1.680  1.587  0.998  0.581  0.310  0.168  0.088
  944.3   50  1.3623 -5.236e-06  0.089  0.118    0.60  0.5588  1.088  0.227  1.000  0.647  1.000  1.941  2.000  1.477  0.996  0.613  0.373  0.219
  693.5   50  1.3660 -2.638e-08  0.089  0.118    0.60  1.0400  2.025  0.227  1.000  0.714  1.000  2.141  2.419  2.036  1.553  1.084  0.735  0.482
  527.1   50  1.3684 -3.835e-09  0.089  0.118    0.60  1.6074  3.130  0.227  1.000  0.753  1.000  2.259  2.735  2.515  2.094  1.602  1.180  0.844
  399.8   50  1.3750 -4.771e-09  0.089  0.118    0.60  2.2435  4.369  0.227  1.000  0.774  1.000  2.321  2.960  2.894  2.582  2.128  1.683  1.303
  329.1   50  1.3855 -9.583e-09  0.089  0.118    0.60  2.6484  5.157  0.227  1.000  0.774  1.000  2.324  3.040  3.045  2.824  2.425  2.002  1.629
  229.8   50  1.4079 -2.669e-08  0.089  0.118    0.60  2.9811  5.804  0.227  1.000  0.756  1.000  2.269  3.055  3.101  3.046  2.763  2.452  2.168
 7082.2   50  1.2833 -7.157e-02  0.089  0.118    0.60  0.0349  0.068  0.227  0.019  0.065  1.000  0.196  0.518  0.043  0.004  0.000  0.000  0.000
  300.0   70  1.3800 -1.440e-08  0.089  0.129    0.60  2.8446  5.067  0.248  1.000  0.779  1.000  2.338  3.133  3.217  3.096  2.768  2.392  2.045
  400.0   70  1.3650 -3.970e-09  0.089  0.129    0.60  2.3617  4.207  0.248  1.000  0.784  1.000  2.352  3.054  3.054  2.791  2.360  1.914  1.521
  440.0   70  1.3624 -3.323e-09  0.089  0.129    0.60  2.1566  3.842  0.248  1.000  0.780  1.000  2.341  2.997  2.949  2.641  2.185  1.733  1.343
  500.0   70  1.3600 -3.330e-09  0.089  0.129    0.60  1.8681  3.327  0.248  1.000  0.772  1.000  2.315  2.898  2.778  2.414  1.933  1.485  1.111
  550.0   70  1.3580 -4.040e-09  0.089  0.129    0.60  1.6482  2.936  0.248  1.000  0.763  1.000  2.290  2.812  2.635  2.234  1.742  1.306  0.951
  600.0   70  1.3570 -1.190e-08  0.089  0.129    0.60  1.4561  2.594  0.248  1.000  0.753  1.000  2.260  2.722  2.491  2.060  1.565  1.145  0.813
  675.0   70  1.3560 -2.161e-08  0.089  0.129    0.60  1.2109  2.157  0.248  1.000  0.737  1.000  2.211  2.587  2.282  1.819  1.330  0.940  0.643
  800.0   70  1.3540 -1.150e-07  0.089  0.129    0.60  0.8942  1.593  0.248  1.000  0.707  1.000  2.122  2.372  1.968  1.479  1.017  0.681  0.441
  870.0   70  1.3532  1.138e-06  0.089  0.129    0.60  0.7594  1.353  0.248  1.000  0.690  1.000  2.070  2.258  1.811  1.317  0.877  0.570  0.359
 1000.0   70  1.3520 -2.540e-06  0.089  0.129    0.60  0.5677  1.011  0.248  1.000  0.657  1.000  1.972  2.060  1.552  1.066  0.669  0.414  0.248
 1020.0   70  1.3517  5.255e-06  0.089  0.129    0.60  0.5432  0.967  0.248  1.000  0.652  1.000  1.957  2.032  1.516  1.032  0.642  0.395  0.235
55555.6   70  1.6270 -2.980e-01  0.089  0.129    0.60  0.0239  0.043  0.248  0.000  0.004  1.000  0.013  0.500  0.002  0.000  0.000  0.000  0.000
23529.4   70  1.6203 -2.742e-01  0.089  0.129    0.60  0.0326  0.058  0.248  0.001  0.009  1.000  0.029  0.500  0.005  0.000  0.000  0.000  0.000
17699.1   70  1.5353 -3.777e-01  0.089  0.129    0.60  0.0654  0.116  0.248  0.002  0.015  1.000  0.046  0.501  0.009  0.000  0.000  0.000  0.000
15037.6   70  1.3536 -3.531e-01  0.089  0.129    0.60  0.0819  0.146  0.248  0.002  0.019  1.000  0.058  0.502  0.012  0.000  0.000  0.000  0.000
13157.9   70  1.2917 -2.866e-01  0.089  0.129    0.60  0.0790  0.140  0.248  0.002  0.024  1.000  0.074  0.503  0.016  0.001  0.000  0.000  0.000
11111.1   70  1.2908 -2.041e-01  0.089  0.129    0.60  0.0673  0.120  0.248  0.004  0.033  1.000  0.101  0.505  0.022  0.001  0.000  0.000  0.000
 9708.7   70  1.3956 -2.276e-01  0.089  0.129    0.60  0.0809  0.144  0.248  0.008  0.045  1.000  0.136  0.509  0.027  0.002  0.000  0.000  0.000
 8849.6   70  1.3591 -2.142e-01  0.089  0.129    0.60  0.0858  0.153  0.248  0.009  0.052  1.000  0.158  0.511  0.033  0.002  0.000  0.000  0.000
 7782.1   70  1.2562 -1.359e-01  0.089  0.129    0.60  0.0658  0.117  0.248  0.009  0.063  1.000  0.189  0.517  0.042  0.003  0.000  0.000  0.000
 6968.6   70  1.2953 -5.284e-02  0.089  0.129    0.60  0.0291  0.052  0.248  0.034  0.079  1.000  0.236  0.527  0.053  0.006  0.001  0.000  0.000
 6097.6   70  1.3446 -1.230e-01  0.089  0.129    0.60  0.0755  0.135  0.248  0.032  0.100  1.000  0.299  0.539  0.066  0.008  0.001  0.000  0.000
 5154.6   70  1.3303 -3.842e-02  0.089  0.129    0.60  0.0318  0.056  0.248  0.109  0.132  1.000  0.394  0.569  0.093  0.015  0.003  0.001  0.000
 4618.9   70  1.3433 -4.183e-02  0.089  0.129    0.60  0.0398  0.071  0.248  0.154  0.156  1.000  0.468  0.594  0.113  0.021  0.004  0.001  0.000
 4319.7   70  1.3497 -3.924e-02  0.089  0.129    0.60  0.0420  0.075  0.248  0.188  0.173  1.000  0.518  0.613  0.129  0.026  0.006  0.001  0.000
 4016.1   70  1.3592 -3.623e-02  0.089  0.129    0.60  0.0449  0.080  0.248  0.241  0.193  1.000  0.578  0.638  0.148  0.034  0.008  0.002  0.001
 3418.8   70  1.3998 -5.523e-02  0.089  0.129    0.60  0.0846  0.151  0.248  0.273  0.241  1.000  0.723  0.703  0.196  0.054  0.015  0.005  0.002
 3444.7   70  1.3973 -5.276e-02  0.089  0.129    0.60  0.0806  0.144  0.248  0.276  0.239  1.000  0.716  0.700  0.194  0.052  0.014  0.004  0.002
 2777.0   70  1.2863 -1.794e-01  0.089  0.129    0.60  0.2552  0.455  0.248  0.373  0.281  1.000  0.843  0.789  0.283  0.094  0.031  0.011  0.004
 2320.2   70  1.2984  3.334e-02  0.089  0.129    0.60  0.0044  0.008  0.248  1.000  0.372  1.000  1.117  0.989  0.433  0.177  0.070  0.029  0.013
 2044.2   70  1.3233  3.138e-03  0.089  0.129    0.60  0.0754  0.134  0.248  0.976  0.419  1.000  1.258  1.111  0.538  0.243  0.105  0.047  0.021
 1778.4   70  1.3332 -9.448e-04  0.089  0.129    0.60  0.1249  0.222  0.248  0.993  0.472  1.000  1.417  1.270  0.682  0.342  0.160  0.077  0.037
 1455.2   70  1.3429 -3.504e-04  0.089  0.129    0.60  0.2238  0.399  0.248  0.997  0.545  1.000  1.635  1.529  0.939  0.533  0.279  0.148  0.077
 1270.3   70  1.3456 -5.488e-05  0.089  0.129    0.60  0.3181  0.567  0.248  1.000  0.590  1.000  1.769  1.719  1.145  0.701  0.393  0.222  0.122
  944.3   70  1.3527 -5.775e-06  0.089  0.129    0.60  0.6423  1.144  0.248  1.000  0.672  1.000  2.014  2.142  1.657  1.166  0.750  0.474  0.290
  693.5   70  1.3560 -2.756e-08  0.089  0.129    0.60  1.1589  2.064  0.248  1.000  0.733  1.000  2.198  2.554  2.231  1.763  1.277  0.895  0.607
  527.1   70  1.3588 -2.962e-09  0.089  0.129    0.60  1.7456  3.109  0.248  1.000  0.767  1.000  2.302  2.852  2.700  2.315  1.827  1.385  1.021
  399.8   70  1.3650 -3.983e-09  0.089  0.129    0.60  2.3630  4.209  0.248  1.000  0.784  1.000  2.352  3.054  3.055  2.792  2.361  1.915  1.522
  329.1   70  1.3740 -9.475e-09  0.089  0.129    0.60  2.7245  4.853  0.248  1.000  0.784  1.000  2.351  3.123  3.190  3.019  2.654  2.244  1.871
  229.8   70  1.3960 -2.925e-08  0.089  0.129    0.60  2.9756  5.300  0.248  1.000  0.763  1.000  2.288  3.116  3.209  3.203  2.963  2.686  2.426
 7082.2   70  1.2907 -5.986e-02  0.089  0.129    0.60  0.0322  0.057  0.248  0.028  0.076  1.000  0.229  0.525  0.052  0.005  0.001  0.000  0.000
  300.0   80  1.3740 -1.480e-08  0.089  0.138    0.60  2.8807  4.796  0.265  1.000  0.783  1.000  2.348  3.175  3.294  3.213  2.914  2.559  2.225
  400.0   80  1.3600 -3.520e-09  0.089  0.138    0.60  2.4584  4.093  0.265  1.000  0.790  1.000  2.369  3.113  3.157  2.931  2.523  2.083  1.685
  440.0   80  1.3566 -2.833e-09  0.089  0.138    0.60  2.2591  3.762  0.265  1.000  0.788  1.000  2.363  3.065  3.066  2.795  2.357  1.905  1.505
  500.0   80  1.3550 -2.840e-09  0.089  0.138    0.60  1.9836  3.303  0.265  1.000  0.780  1.000  2.340  2.972  2.902  2.570  2.101  1.646  1.257
  550.0   80  1.3530 -3.600e-09  0.089  0.138    0.60  1.7647  2.938  0.265  1.000  0.773  1.000  2.318  2.893  2.766  2.394  1.908  1.460  1.086
  600.0   80  1.3520 -1.170e-08  0.089  0.138    0.60  1.5705  2.615  0.265  1.000  0.764  1.000  2.291  2.808  2.627  2.220  1.727  1.291  0.937
  675.0   80  1.3510 -2.198e-08  0.089  0.138    0.60  1.3186  2.196  0.265  1.000  0.749  1.000  2.247  2.680  2.423  1.978  1.483  1.072  0.751
  800.0   80  1.3490 -1.170e-07  0.089  0.138    0.60  0.9869  1.643  0.265  1.000  0.722  1.000  2.166  2.472  2.110  1.629  1.152  0.791  0.525
  870.0   80  1.3483  1.210e-06  0.089  0.138    0.60  0.8439  1.405  0.265  1.000  0.706  1.000  2.118  2.360  1.951  1.460  1.001  0.668  0.431
 1000.0   80  1.3460 -2.610e-06  0.089  0.138    0.60  0.6339  1.056  0.265  1.000  0.676  1.000  2.027  2.167  1.689  1.197  0.776  0.494  0.303
 1020.0   80  1.3455  5.659e-06  0.089  0.138    0.60  0.6069  1.011  0.265  1.000  0.671  1.000  2.013  2.139  1.653  1.161  0.747  0.472  0.287
55555.6   80  1.6070 -3.060e-01  0.089  0.138    0.60  0.0267  0.044  0.265  0.000  0.005  1.000  0.015  0.500  0.003  0.000  0.000  0.000  0.000
23529.4   80  1.5988 -2.936e-01  0.089  0.138    0.60  0.0381  0.064  0.265  0.001  0.011  1.000  0.033  0.501  0.005  0.000  0.000  0.000  0.000
17699.1   80  1.5084 -3.882e-01  0.089  0.138    0.60  0.0733  0.122  0.265  0.002  0.017  1.000  0.053  0.501  0.010  0.000  0.000  0.000  0.000
15037.6   80  1.3358 -3.641e-01  0.089  0.138    0.60  0.0915  0.152  0.265  0.002  0.022  1.000  0.065  0.502  0.014  0.000  0.000  0.000  0.000
13157.9   80  1.2627 -2.922e-01  0.089  0.138    0.60  0.0882  0.147  0.265  0.002  0.027  1.000  0.081  0.504  0.018  0.001  0.000  0.000  0.000
11111.1   80  1.2605 -1.835e-01  0.089  0.138    0.60  0.0659  0.109  0.265  0.004  0.037  1.000  0.113  0.507  0.024  0.001  0.000  0.000  0.000
 9708.7   80  1.3607 -1.894e-01  0.089  0.138    0.60  0.0737  0.123  0.265  0.008  0.051  1.000  0.152  0.511  0.032  0.002  0.000  0.000  0.000
 8849.6   80  1.3393 -1.771e-01  0.089  0.138    0.60  0.0772  0.129  0.265  0.011  0.059  1.000  0.177  0.515  0.038  0.003  0.000  0.000  0.000
 7782.1   80  1.2658 -1.141e-01  0.089  0.138    0.60  0.0593  0.099  0.265  0.014  0.071  1.000  0.213  0.522  0.048  0.004  0.000  0.000  0.000
 6968.6   80  1.2973 -4.697e-02  0.089  0.138    0.60  0.0281  0.047  0.265  0.045  0.089  1.000  0.265  0.533  0.060  0.007  0.001  0.000  0.000
 6097.6   80  1.3384 -1.187e-01  0.089  0.138    0.60  0.0790  0.131  0.265  0.038  0.110  1.000  0.331  0.548  0.075  0.010  0.002  0.000  0.000
 5154.6   80  1.3291 -3.116e-02  0.089  0.138    0.60  0.0293  0.049  0.265  0.146  0.146  1.000  0.437  0.582  0.105  0.019  0.004  0.001  0.000
 4618.9   80  1.3403 -3.631e-02  0.089  0.138    0.60  0.0392  0.066  0.265  0.196  0.172  1.000  0.517  0.613  0.129  0.027  0.006  0.002  0.001
 4319.7   80  1.3468 -3.300e-02  0.089  0.138    0.60  0.0408  0.068  0.265  0.240  0.190  1.000  0.570  0.635  0.146  0.033  0.008  0.002  0.001
 4016.1   80  1.3572 -2.953e-02  0.089  0.138    0.60  0.0435  0.073  0.265  0.310  0.211  1.000  0.633  0.663  0.168  0.041  0.011  0.003  0.001
 3418.8   80  1.4029 -4.761e-02  0.089  0.138    0.60  0.0867  0.145  0.265  0.338  0.263  1.000  0.789  0.739  0.224  0.066  0.019  0.006  0.002
 3444.7   80  1.3996 -4.493e-02  0.089  0.138    0.60  0.0819  0.136  0.265  0.344  0.261  1.000  0.782  0.735  0.221  0.064  0.019  0.006  0.002
 2777.0   80  1.2844 -1.894e-01  0.089  0.138    0.60  0.2892  0.482  0.265  0.379  0.301  1.000  0.904  0.831  0.319  0.113  0.040  0.015  0.006
 2320.2   80  1.2933  3.554e-02  0.089  0.138    0.60  0.0071  0.012  0.265  1.000  0.399  1.000  1.195  1.057  0.493  0.214  0.088  0.038  0.017
 2044.2   80  1.3192  3.419e-03  0.089  0.138    0.60  0.0892  0.149  0.265  0.979  0.445  1.000  1.334  1.187  0.608  0.290  0.130  0.060  0.027
 1778.4   80  1.3292 -9.696e-04  0.089  0.138    0.60  0.1464  0.244  0.265  0.994  0.497  1.000  1.492  1.356  0.766  0.402  0.196  0.098  0.048
 1455.2   80  1.3389 -3.676e-04  0.089  0.138    0.60  0.2594  0.432  0.265  0.997  0.568  1.000  1.704  1.625  1.043  0.617  0.335  0.184  0.098
 1270.3   80  1.3408 -5.767e-05  0.089  0.138    0.60  0.3637  0.606  0.265  1.000  0.611  1.000  1.833  1.821  1.263  0.802  0.467  0.271  0.152
  944.3   80  1.3473 -6.079e-06  0.089  0.138    0.60  0.7165  1.193  0.265  1.000  0.689  1.000  2.066  2.247  1.796  1.302  0.864  0.561  0.352
  693.5   80  1.3510 -2.819e-08  0.089  0.138    0.60  1.2647  2.106  0.265  1.000  0.745  1.000  2.235  2.648  2.373  1.921  1.427  1.023  0.710
  527.1   80  1.3540 -2.475e-09  0.089  0.138    0.60  1.8629  3.102  0.265  1.000  0.776  1.000  2.328  2.929  2.828  2.473  1.994  1.542  1.160
  399.8   80  1.3600 -3.533e-09  0.089  0.138    0.60  2.4596  4.095  0.265  1.000  0.790  1.000  2.369  3.113  3.158  2.932  2.524  2.084  1.686
  329.1   80  1.3680 -9.467e-09  0.089  0.138    0.60  2.7812  4.631  0.265  1.000  0.788  1.000  2.364  3.171  3.277  3.147  2.809  2.416  2.050
  229.8   80  1.3888 -3.067e-08  0.089  0.138    0.60  2.9633  4.934  0.265  1.000  0.766  1.000  2.297  3.153  3.275  3.307  3.100  2.854  2.616
 7082.2   80  1.2942 -5.327e-02  0.089  0.138    0.60  0.0311  0.051  0.265  0.038  0.086  1.000  0.258  0.531  0.058  0.007  0.001  0.000  0.000
  300.0   90  1.3650 -1.520e-08  0.089  0.155    0.60  2.9200  4.329  0.298  1.000  0.787  1.000  2.361  3.236  3.408  3.392  3.149  2.839  2.536
  400.0   90  1.3530 -2.970e-09  0.089  0.155    0.60  2.6126  3.873  0.298  1.000  0.797  1.000  2.392  3.198  3.312  3.152  2.788  2.368  1.975
  440.0   90  1.3505 -2.223e-09  0.089  0.155    0.60  2.4436  3.622  0.298  1.000  0.796  1.000  2.390  3.159  3.235  3.027  2.628  2.187  1.782
  500.0   90  1.3480 -2.230e-09  0.089  0.155    0.60  2.1842  3.238  0.298  1.000  0.792  1.000  2.376  3.086  3.098  2.827  2.387  1.930  1.523
  550.0   90  1.3460 -3.060e-09  0.089  0.155    0.60  1.9724  2.924  0.298  1.000  0.786  1.000  2.359  3.018  2.977  2.660  2.196  1.736  1.337
  600.0   90  1.3450 -1.140e-08  0.089  0.155    0.60  1.7785  2.636  0.298  1.000  0.779  1.000  2.338  2.944  2.849  2.493  2.011  1.556  1.171
  675.0   90  1.3440 -2.243e-08  0.089  0.155    0.60  1.5194  2.252  0.298  1.000  0.768  1.000  2.302  2.829  2.657  2.252  1.758  1.318  0.959
  800.0   90  1.3420 -1.200e-07  0.089  0.155    0.60  1.1650  1.727  0.298  1.000  0.744  1.000  2.233  2.637  2.354  1.896  1.402  1.002  0.693
  870.0   90  1.3412  1.296e-06  0.089  0.155    0.60  1.0074  1.493  0.298  1.000  0.730  1.000  2.191  2.531  2.195  1.720  1.235  0.860  0.579
 1000.0   90  1.3400 -2.700e-06  0.089  0.155    0.60  0.7751  1.149  0.298  1.000  0.704  1.000  2.111  2.343  1.926  1.434  0.978  0.650  0.418
 1020.0   90  1.3397  6.136e-06  0.089  0.155    0.60  0.7447  1.104  0.298  1.000  0.700  1.000  2.098  2.316  1.888  1.395  0.944  0.623  0.398
55555.6   90  1.5820 -3.160e-01  0.089  0.155    0.60  0.0316  0.047  0.298  0.000  0.006  1.000  0.018  0.500  0.003  0.000  0.000  0.000  0.000
23529.4   90  1.5721 -3.171e-01  0.089  0.155    0.60  0.0474  0.071  0.298  0.002  0.013  1.000  0.040  0.501  0.007  0.000  0.000  0.000  0.000
17699.1   90  1.4755 -4.010e-01  0.089  0.155    0.60  0.0872  0.129  0.298  0.003  0.021  1.000  0.064  0.502  0.012  0.000  0.000  0.000  0.000
15037.6   90  1.3154 -3.771e-01  0.089  0.155    0.60  0.1082  0.160  0.298  0.003  0.027  1.000  0.080  0.503  0.017  0.001  0.000  0.000  0.000
13157.9   90  1.2270 -3.009e-01  0.089  0.155    0.60  0.1044  0.154  0.298  0.003  0.032  1.000  0.098  0.505  0.022  0.001  0.000  0.000  0.000
11111.1   90  1.2227 -1.582e-01  0.089  0.155    0.60  0.0651  0.096  0.298  0.005  0.045  1.000  0.136  0.509  0.031  0.002  0.000  0.000  0.000
 9708.7   90  1.3185 -1.419e-01  0.089  0.155    0.60  0.0642  0.095  0.298  0.011  0.061  1.000  0.183  0.516  0.040  0.003  0.000  0.000  0.000
 8849.6   90  1.3151 -1.311e-01  0.089  0.155    0.60  0.0658  0.097  0.298  0.016  0.072  1.000  0.214  0.522  0.047  0.005  0.001  0.000  0.000
 7782.1   90  1.2763 -8.760e-02  0.089  0.155    0.60  0.0517  0.077  0.298  0.024  0.087  1.000  0.262  0.533  0.060  0.006  0.001  0.000  0.000
 6968.6   90  1.3006 -3.978e-02  0.089  0.155    0.60  0.0276  0.041  0.298  0.071  0.107  1.000  0.321  0.547  0.075  0.011  0.001  0.000  0.000
 6097.6   90  1.3306 -1.131e-01  0.089  0.155    0.60  0.0869  0.129  0.298  0.049  0.132  1.000  0.395  0.567  0.093  0.015  0.003  0.001  0.000
 5154.6   90  1.3281 -2.216e-02  0.089  0.155    0.60  0.0273  0.040  0.298  0.224  0.173  1.000  0.520  0.615  0.131  0.027  0.006  0.002  0.001
 4618.9   90  1.3363 -2.938e-02  0.089  0.155    0.60  0.0403  0.060  0.298  0.281  0.202  1.000  0.607  0.652  0.161  0.039  0.010  0.003  0.001
 4319.7   90  1.3436 -2.520e-02  0.089  0.155    0.60  0.0416  0.062  0.298  0.345  0.223  1.000  0.668  0.681  0.183  0.047  0.013  0.004  0.001
 4016.1   90  1.3552 -2.133e-02  0.089  0.155    0.60  0.0448  0.067  0.298  0.443  0.247  1.000  0.739  0.718  0.210  0.059  0.017  0.006  0.002
 3418.8   90  1.4069 -3.805e-02  0.089  0.155    0.60  0.0965  0.143  0.298  0.452  0.303  1.000  0.908  0.810  0.279  0.092  0.030  0.011  0.004
 3444.7   90  1.4029 -3.512e-02  0.089  0.155    0.60  0.0903  0.134  0.298  0.465  0.300  1.000  0.900  0.806  0.276  0.091  0.030  0.011  0.004
 2777.0   90  1.2822 -2.014e-01  0.089  0.155    0.60  0.3494  0.518  0.298  0.391  0.339  1.000  1.017  0.916  0.394  0.155  0.061  0.025  0.010
 2320.2   90  1.2874  3.821e-02  0.089  0.155    0.60  0.0170  0.026  0.298  1.000  0.444  1.000  1.331  1.187  0.610  0.290  0.130  0.061  0.029
 2044.2   90  1.3142  3.758e-03  0.089  0.155    0.60  0.1200  0.178  0.298  0.984  0.489  1.000  1.467  1.330  0.744  0.385  0.186  0.092  0.045
 1778.4   90  1.3233 -9.988e-04  0.089  0.155    0.60  0.1918  0.284  0.298  0.995  0.539  1.000  1.619  1.515  0.928  0.524  0.274  0.145  0.075
 1455.2   90  1.3329 -3.876e-04  0.089  0.155    0.60  0.3322  0.492  0.298  0.997  0.606  1.000  1.818  1.799  1.239  0.781  0.452  0.261  0.147
 1270.3   90  1.3347 -6.102e-05  0.089  0.155    0.60  0.4582  0.679  0.298  1.000  0.646  1.000  1.938  2.000  1.478  0.996  0.615  0.375  0.222
  944.3   90  1.3406 -6.445e-06  0.089  0.155    0.60  0.8666  1.285  0.298  1.000  0.715  1.000  2.146  2.421  2.037  1.550  1.080  0.732  0.480
  693.5   90  1.3440 -2.902e-08  0.089  0.155    0.60  1.4628  2.168  0.298  1.000  0.764  1.000  2.292  2.799  2.610  2.195  1.699  1.264  0.913
  527.1   90  1.3468 -1.876e-09  0.089  0.155    0.60  2.0676  3.065  0.298  1.000  0.789  1.000  2.367  3.050  3.033  2.736  2.282  1.823  1.419
  399.8   90  1.3530 -2.985e-09  0.089  0.155    0.60  2.6136  3.874  0.298  1.000  0.797  1.000  2.392  3.198  3.312  3.153  2.789  2.369  1.976
  329.1   90  1.3601 -9.422e-09  0.089  0.155    0.60  2.8630  4.244  0.298  1.000  0.793  1.000  2.378  3.237  3.401  3.335  3.051  2.695  2.351
  229.8   90  1.3810 -3.244e-08  0.089  0.155    0.60  2.9255  4.337  0.298  1.000  0.766  1.000  2.300  3.194  3.351  3.449  3.300  3.118  2.932
 7082.2   90  1.2994 -4.508e-02  0.089  0.155    0.60  0.0303  0.045  0.298  0.062  0.104  1.000  0.313  0.544  0.072  0.010  0.001  0.000  0.000
  300.0   95  1.3590 -1.550e-08  0.089  0.178    0.60  2.9291  3.781  0.342  1.000  0.787  1.000  2.362  3.279  3.492  3.550  3.376  3.134  2.886
  400.0   95  1.3480 -2.550e-09  0.089  0.178    0.60  2.7678  3.573  0.342  1.000  0.802  1.000  2.406  3.271  3.451  3.367  3.064  2.684  2.313
  440.0   95  1.3455 -1.753e-09  0.089  0.178    0.60  2.6392  3.407  0.342  1.000  0.803  1.000  2.409  3.246  3.397  3.266  2.922  2.511  2.117
  500.0   95  1.3430 -1.770e-09  0.089  0.178    0.60  2.4204  3.124  0.342  1.000  0.801  1.000  2.404  3.193  3.291  3.095  2.702  2.260  1.849
  550.0   95  1.3410 -2.639e-09  0.089  0.178    0.60  2.2279  2.876  0.342  1.000  0.798  1.000  2.395  3.140  3.192  2.948  2.522  2.066  1.651
  600.0   95  1.3400 -1.120e-08  0.089  0.178    0.60  2.0433  2.638  0.342  1.000  0.793  1.000  2.380  3.080  3.082  2.794  2.343  1.881  1.471
  675.0   95  1.3390 -2.288e-08  0.089  0.178    0.60  1.7850  2.304  0.342  1.000  0.785  1.000  2.353  2.982  2.910  2.566  2.088  1.629  1.235
  800.0   95  1.3370 -1.220e-07  0.089  0.178    0.60  1.4121  1.823  0.342  1.000  0.766  1.000  2.299  2.813  2.629  2.216  1.718  1.281  0.926
  870.0   95  1.3362  1.363e-06  0.089  0.178    0.60  1.2392  1.600  0.342  1.000  0.755  1.000  2.265  2.717  2.477  2.036  1.538  1.119  0.789
 1000.0   95  1.3350 -2.770e-06  0.089  0.178    0.60  0.9763  1.260  0.342  1.000  0.733  1.000  2.198  2.543  2.212  1.737  1.251  0.873  0.589
 1020.0   95  1.3347  6.494e-06  0.089  0.178    0.60  0.9413  1.215  0.342  1.000  0.729  1.000  2.187  2.517  2.174  1.695  1.212  0.841  0.564
55555.6   95  1.5630 -3.240e-01  0.089  0.178    0.60  0.0378  0.049  0.342  0.001  0.008  1.000  0.024  0.500  0.004  0.000  0.000  0.000  0.000
23529.4   95  1.5513 -3.343e-01  0.089  0.178    0.60  0.0588  0.076  0.342  0.002  0.017  1.000  0.051  0.501  0.009  0.000  0.000  0.000  0.000
17699.1   95  1.4509 -4.112e-01  0.089  0.178    0.60  0.1048  0.135  0.342  0.004  0.027  1.000  0.082  0.503  0.016  0.001  0.000  0.000  0.000
15037.6   95  1.2986 -3.871e-01  0.089  0.178    0.60  0.1294  0.167  0.342  0.004  0.034  1.000  0.102  0.505  0.022  0.001  0.000  0.000  0.000
13157.9   95  1.1998 -3.075e-01  0.089  0.178    0.60  0.1245  0.161  0.342  0.004  0.041  1.000  0.123  0.508  0.028  0.002  0.000  0.000  0.000
11111.1   95  1.1936 -1.386e-01  0.089  0.178    0.60  0.0667  0.086  0.342  0.006  0.057  1.000  0.171  0.514  0.040  0.003  0.000  0.000  0.000
 9708.7   95  1.2865 -1.062e-01  0.089  0.178    0.60  0.0568  0.074  0.342  0.018  0.076  1.000  0.229  0.524  0.052  0.005  0.001  0.000  0.000
 8849.6   95  1.2972 -9.618e-02  0.089  0.178    0.60  0.0571  0.074  0.342  0.026  0.090  1.000  0.269  0.533  0.061  0.007  0.001  0.000  0.000
 7782.1   95  1.2844 -6.746e-02  0.089  0.178    0.60  0.0471  0.061  0.342  0.044  0.110  1.000  0.331  0.550  0.078  0.010  0.002  0.000  0.000
 6968.6   95  1.3032 -3.453e-02  0.089  0.178    0.60  0.0289  0.037  0.342  0.112  0.134  1.000  0.401  0.572  0.096  0.016  0.003  0.001  0.000
 6097.6   95  1.3249 -1.093e-01  0.089  0.178    0.60  0.0995  0.129  0.342  0.066  0.161  1.000  0.483  0.599  0.120  0.023  0.005  0.001  0.000
 5154.6   95  1.3268 -1.527e-02  0.089  0.178    0.60  0.0280  0.037  0.342  0.337  0.210  1.000  0.631  0.665  0.171  0.043  0.011  0.003  0.001
 4618.9   95  1.3342 -2.426e-02  0.089  0.178    0.60  0.0457  0.059  0.342  0.392  0.243  1.000  0.729  0.715  0.210  0.059  0.017  0.005  0.002
 4319.7   95  1.3417 -1.935e-02  0.089  0.178    0.60  0.0473  0.061  0.342  0.476  0.266  1.000  0.797  0.753  0.239  0.072  0.022  0.008  0.003
 4016.1   95  1.3532 -1.503e-02  0.089  0.178    0.60  0.0518  0.067  0.342  0.597  0.292  1.000  0.875  0.800  0.274  0.090  0.030  0.011  0.004
 3418.8   95  1.4100 -3.088e-02  0.089  0.178    0.60  0.1192  0.154  0.342  0.574  0.352  1.000  1.055  0.913  0.360  0.136  0.049  0.019  0.007
 3444.7   95  1.4053 -2.775e-02  0.089  0.178    0.60  0.1108  0.143  0.342  0.593  0.349  1.000  1.047  0.908  0.356  0.134  0.048  0.019  0.007
 2777.0   95  1.2807 -2.105e-01  0.089  0.178    0.60  0.4251  0.548  0.342  0.405  0.387  1.000  1.161  1.039  0.505  0.224  0.095  0.042  0.019
 2320.2   95  1.2830  4.023e-02  0.089  0.178    0.60  0.0380  0.049  0.342  1.000  0.498  1.000  1.495  1.366  0.779  0.409  0.201  0.100  0.050
 2044.2   95  1.3102  4.017e-03  0.089  0.178    0.60  0.1699  0.219  0.342  0.990  0.540  1.000  1.621  1.520  0.935  0.529  0.278  0.147  0.077
 1778.4   95  1.3193 -1.021e-03  0.089  0.178    0.60  0.2650  0.343  0.342  0.995  0.588  1.000  1.762  1.717  1.147  0.702  0.396  0.223  0.124
 1455.2   95  1.3289 -4.029e-04  0.089  0.178    0.60  0.4465  0.576  0.342  0.998  0.647  1.000  1.943  2.011  1.491  1.008  0.624  0.383  0.226
 1270.3   95  1.3308 -6.354e-05  0.089  0.178    0.60  0.6035  0.779  0.342  1.000  0.683  1.000  2.048  2.212  1.749  1.254  0.824  0.531  0.331
  944.3   95  1.3356 -6.722e-06  0.089  0.178    0.60  1.0810  1.396  0.342  1.000  0.743  1.000  2.227  2.616  2.322  1.859  1.366  0.970  0.667
  693.5   95  1.3390 -2.971e-08  0.089  0.178    0.60  1.7270  2.229  0.342  1.000  0.782  1.000  2.345  2.956  2.866  2.510  2.028  1.571  1.182
  527.1   95  1.3418 -1.415e-09  0.089  0.178    0.60  2.3157  2.989  0.342  1.000  0.800  1.000  2.400  3.165  3.239  3.016  2.604  2.153  1.739
  399.8   95  1.3480 -2.565e-09  0.089  0.178    0.60  2.7685  3.574  0.342  1.000  0.802  1.000  2.406  3.271  3.451  3.368  3.065  2.685  2.314
  329.1   95  1.3541 -9.383e-09  0.089  0.178    0.60  2.9184  3.767  0.342  1.000  0.794  1.000  2.383  3.289  3.502  3.511  3.294  2.996  2.697
  229.8   95  1.3738 -3.377e-08  0.089  0.178    0.60  2.8490  3.678  0.342  1.000  0.766  1.000  2.299  3.231  3.422  3.594  3.518  3.419  3.307
 7082.2   95  1.3032 -3.906e-02  0.089  0.178    0.60  0.0317  0.041  0.342  0.100  0.130  1.000  0.391  0.568  0.093  0.015  0.003  0.001  0.000
  300.0   99  1.3520 -1.580e-08  0.089  0.251    0.60  2.7712  2.537  0.482  1.000  0.778  1.000  2.334  3.325  3.590  3.824  3.827  3.801  3.749
  400.0   99  1.3420 -2.080e-09  0.089  0.251    0.60  2.9121  2.666  0.482  1.000  0.799  1.000  2.396  3.357  3.632  3.722  3.585  3.363  3.123
  440.0   99  1.3403 -1.243e-09  0.089  0.251    0.60  2.9054  2.660  0.482  1.000  0.803  1.000  2.410  3.355  3.622  3.668  3.485  3.211  2.921
  500.0   99  1.3380 -1.240e-09  0.089  0.251    0.60  2.8405  2.600  0.482  1.000  0.808  1.000  2.424  3.345  3.591  3.577  3.334  2.998  2.654
  550.0   99  1.3360 -2.180e-09  0.089  0.251    0.60  2.7479  2.516  0.482  1.000  0.810  1.000  2.431  3.328  3.551  3.491  3.206  2.831  2.455
  600.0   99  1.3350 -1.100e-08  0.089  0.251    0.60  2.6358  2.413  0.482  1.000  0.811  1.000  2.432  3.301  3.495  3.391  3.067  2.662  2.264
  675.0   99  1.3340 -2.332e-08  0.089  0.251    0.60  2.4460  2.239  0.482  1.000  0.809  1.000  2.426  3.251  3.393  3.228  2.855  2.419  2.003
  800.0   99  1.3320 -1.240e-07  0.089  0.251    0.60  2.1084  1.930  0.482  1.000  0.802  1.000  2.405  3.149  3.202  2.949  2.516  2.054  1.633
  870.0   99  1.3312  1.436e-06  0.089  0.251    0.60  1.9276  1.764  0.482  1.000  0.796  1.000  2.388  3.085  3.087  2.792  2.334  1.869  1.455
 1000.0   99  1.3300 -2.850e-06  0.089  0.251    0.60  1.6219  1.485  0.482  1.000  0.784  1.000  2.351  2.961  2.871  2.509  2.023  1.564  1.174
 1020.0   99  1.3297  6.897e-06  0.089  0.251    0.60  1.5780  1.445  0.482  1.000  0.782  1.000  2.345  2.942  2.838  2.468  1.979  1.522  1.136
55555.6   99  1.5420 -3.320e-01  0.089  0.251    0.60  0.0558  0.051  0.482  0.002  0.015  1.000  0.046  0.501  0.009  0.000  0.000  0.000  0.000
23529.4   99  1.5285 -3.546e-01  0.089  0.251    0.60  0.0907  0.083  0.482  0.006  0.032  1.000  0.097  0.504  0.018  0.001  0.000  0.000  0.000
17699.1   99  1.4224 -4.219e-01  0.089  0.251    0.60  0.1573  0.144  0.482  0.009  0.049  1.000  0.148  0.510  0.030  0.002  0.000  0.000  0.000
15037.6   99  1.2810 -3.981e-01  0.089  0.251    0.60  0.1922  0.176  0.482  0.009  0.060  1.000  0.180  0.515  0.041  0.003  0.000  0.000  0.000
13157.9   99  1.1699 -3.142e-01  0.089  0.251    0.60  0.1839  0.168  0.482  0.009  0.073  1.000  0.217  0.523  0.054  0.006  0.001  0.000  0.000
11111.1   99  1.1612 -1.161e-01  0.089  0.251    0.60  0.0814  0.074  0.482  0.012  0.100  1.000  0.299  0.542  0.075  0.011  0.002  0.000  0.000
 9708.7   99  1.2511 -6.572e-02  0.089  0.251    0.60  0.0532  0.049  0.482  0.049  0.131  1.000  0.393  0.570  0.098  0.017  0.003  0.001  0.000
 8849.6   99  1.2770 -5.731e-02  0.089  0.251    0.60  0.0526  0.048  0.482  0.082  0.153  1.000  0.459  0.593  0.116  0.022  0.004  0.001  0.000
 7782.1   99  1.2939 -4.484e-02  0.089  0.251    0.60  0.0509  0.047  0.482  0.147  0.186  1.000  0.560  0.633  0.149  0.034  0.008  0.002  0.001
 6968.6   99  1.3056 -2.817e-02  0.089  0.251    0.60  0.0417  0.038  0.482  0.255  0.220  1.000  0.658  0.680  0.185  0.048  0.013  0.004  0.001
 6097.6   99  1.3183 -1.043e-01  0.089  0.251    0.60  0.1502  0.138  0.482  0.128  0.254  1.000  0.762  0.730  0.228  0.067  0.020  0.006  0.002
 5154.6   99  1.3260 -7.817e-03  0.089  0.251    0.60  0.0486  0.044  0.482  0.618  0.322  1.000  0.966  0.866  0.331  0.119  0.042  0.016  0.006
 4618.9   99  1.3302 -1.837e-02  0.089  0.251    0.60  0.0832  0.076  0.482  0.626  0.361  1.000  1.083  0.955  0.403  0.160  0.061  0.025  0.010
 4319.7   99  1.3382 -1.272e-02  0.089  0.251    0.60  0.0902  0.083  0.482  0.719  0.387  1.000  1.163  1.019  0.456  0.192  0.077  0.033  0.014
 4016.1   99  1.3511 -8.044e-03  0.089  0.251    0.60  0.1055  0.097  0.482  0.837  0.416  1.000  1.249  1.094  0.519  0.232  0.098  0.043  0.019
 3418.8   99  1.4131 -2.277e-02  0.089  0.251    0.60  0.2450  0.225  0.482  0.763  0.476  1.000  1.428  1.248  0.654  0.322  0.146  0.068  0.032
 3444.7   99  1.4076 -1.941e-02  0.089  0.251    0.60  0.2287  0.210  0.482  0.786  0.474  1.000  1.420  1.243  0.650  0.319  0.144  0.068  0.031
 2777.0   99  1.2799 -2.206e-01  0.089  0.251    0.60  0.6429  0.589  0.482  0.443  0.513  1.000  1.540  1.448  0.907  0.510  0.272  0.145  0.077
 2320.2   99  1.2774  4.247e-02  0.089  0.251    0.60  0.1551  0.142  0.482  1.000  0.625  1.000  1.873  1.890  1.341  0.866  0.517  0.305  0.176
 2044.2   99  1.3051  4.303e-03  0.089  0.251    0.60  0.3839  0.351  0.482  0.997  0.654  1.000  1.961  2.046  1.535  1.047  0.656  0.405  0.243
 1778.4   99  1.3143 -1.046e-03  0.089  0.251    0.60  0.5604  0.513  0.482  0.996  0.688  1.000  2.065  2.246  1.796  1.300  0.864  0.562  0.353
 1455.2   99  1.3237 -4.204e-04  0.089  0.251    0.60  0.8723  0.798  0.482  0.998  0.731  1.000  2.191  2.523  2.182  1.702  1.219  0.846  0.568
 1270.3   99  1.3248 -6.639e-05  0.089  0.251    0.60  1.1109  1.017  0.482  1.000  0.755  1.000  2.263  2.701  2.450  2.002  1.503  1.089  0.763
  944.3   99  1.3306 -7.035e-06  0.089  0.251    0.60  1.7485  1.601  0.482  1.000  0.789  1.000  2.367  3.015  2.963  2.628  2.151  1.688  1.286
  693.5   99  1.3340 -3.045e-08  0.089  0.251    0.60  2.3984  2.196  0.482  1.000  0.807  1.000  2.423  3.235  3.364  3.185  2.802  2.359  1.941
  527.1   99  1.3368 -8.927e-10  0.089  0.251    0.60  2.7934  2.557  0.482  1.000  0.809  1.000  2.428  3.337  3.571  3.532  3.266  2.907  2.545
  399.8   99  1.3420 -2.096e-09  0.089  0.251    0.60  2.9120  2.666  0.482  1.000  0.799  1.000  2.396  3.357  3.632  3.722  3.586  3.364  3.124
  329.1   99  1.3477 -9.313e-09  0.089  0.251    0.60  2.8396  2.599  0.482  1.000  0.785  1.000  2.356  3.337  3.609  3.791  3.746  3.649  3.528
  229.8   99  1.3669 -3.533e-08  0.089  0.251    0.60  2.5940  2.375  0.482  1.000  0.762  1.000  2.285  3.301  3.547  3.911  4.014  4.155  4.264
 7082.2   99  1.3074 -3.196e-02  0.089  0.251    0.60  0.0450  0.041  0.482  0.238  0.215  1.000  0.644  0.673  0.179  0.045  0.012  0.003  0.001
