ssc RRTMG LUT interpolated from GADS (DAR 09/2013)
V0.1 - contains Fast-J wavelengths but is the same as the original jv_spec.dat values
  w(nm)   RH       N         iK  RgDry  RgWet      Sg       Q  Alpha  r-eff ss-alb  g-sym  pi(0)  pi(1)  pi(2)  pi(3)  pi(4)  pi(5)  pi(6)  pi(7)
  300.0   00  1.5100 -2.000e-06  0.401  0.401    1.80  2.3440  0.839  0.952  1.000  0.730  1.000  2.191  3.221  3.361  4.177  4.284  4.973  5.154
  400.0   00  1.5000 -3.000e-08  0.401  0.401    1.80  2.4454  0.876  0.952  1.000  0.712  1.000  2.136  3.100  3.173  3.847  3.881  4.371  4.469
  440.0   00  1.4997 -2.383e-08  0.401  0.401    1.80  2.4929  0.893  0.952  1.000  0.705  1.000  2.113  3.050  3.096  3.720  3.721  4.146  4.202
  500.0   00  1.5000 -1.550e-08  0.401  0.401    1.80  2.5588  0.916  0.952  1.000  0.697  1.000  2.092  2.988  2.998  3.538  3.495  3.824  3.830
  550.0   00  1.5000 -1.000e-08  0.401  0.401    1.80  2.6166  0.937  0.952  1.000  0.693  1.000  2.078  2.943  2.926  3.403  3.325  3.582  3.549
  600.0   00  1.4900 -1.600e-08  0.401  0.401    1.80  2.6762  0.958  0.952  1.000  0.695  1.000  2.085  2.926  2.900  3.292  3.190  3.355  3.301
  675.0   00  1.4900 -1.013e-08  0.401  0.401    1.80  2.7505  0.985  0.952  1.000  0.693  1.000  2.079  2.882  2.828  3.131  2.983  3.059  2.957
  800.0   00  1.4800 -1.950e-06  0.401  0.401    1.80  2.8484  1.020  0.952  1.000  0.700  1.000  2.099  2.852  2.779  2.936  2.730  2.666  2.508
  870.0   00  1.4791 -2.307e-05  0.401  0.401    1.80  2.8824  1.032  0.952  0.999  0.702  1.000  2.105  2.830  2.743  2.836  2.600  2.481  2.297
 1000.0   00  1.4700 -1.410e-04  0.401  0.401    1.80  2.8998  1.038  0.952  0.998  0.710  1.000  2.131  2.821  2.724  2.711  2.428  2.222  1.997
 1020.0   00  1.4682 -1.612e-04  0.401  0.401    1.80  2.8986  1.038  0.952  0.998  0.711  1.000  2.136  2.821  2.723  2.695  2.406  2.188  1.958
55555.6   00  1.7600 -5.000e-01  0.401  0.401    1.80  0.1479  0.053  0.952  0.027  0.096  1.000  0.289  0.532  0.052  0.006  0.001  0.000  0.000
23529.4   00  1.7595 -1.889e-01  0.401  0.401    1.80  0.1019  0.036  0.952  0.133  0.186  1.000  0.557  0.603  0.107  0.023  0.005  0.002  0.000
17699.1   00  1.7802 -1.275e-01  0.401  0.401    1.80  0.1230  0.044  0.952  0.309  0.261  1.000  0.782  0.681  0.168  0.047  0.013  0.004  0.001
15037.6   00  1.4534 -3.609e-02  0.401  0.401    1.80  0.0595  0.021  0.952  0.420  0.284  1.000  0.854  0.792  0.264  0.092  0.033  0.013  0.005
13157.9   00  1.4096 -1.878e-02  0.401  0.401    1.80  0.0534  0.019  0.952  0.598  0.323  1.000  0.968  0.880  0.338  0.133  0.052  0.022  0.010
11111.1   00  1.4788 -1.398e-02  0.401  0.401    1.80  0.0927  0.033  0.952  0.789  0.379  1.000  1.138  0.989  0.426  0.185  0.076  0.034  0.014
 9708.7   00  1.5673 -1.618e-02  0.401  0.401    1.80  0.1766  0.063  0.952  0.845  0.420  1.000  1.257  1.052  0.480  0.220  0.093  0.044  0.018
 8849.6   00  1.6490 -2.965e-02  0.401  0.401    1.80  0.2959  0.106  0.952  0.809  0.440  1.000  1.321  1.067  0.499  0.232  0.097  0.047  0.019
 7782.1   00  1.4018 -1.145e-02  0.401  0.401    1.80  0.1716  0.062  0.952  0.847  0.486  1.000  1.459  1.330  0.753  0.409  0.209  0.110  0.057
 6968.6   00  1.3857 -1.202e-03  0.401  0.401    1.80  0.1628  0.058  0.952  0.952  0.524  1.000  1.573  1.481  0.900  0.522  0.282  0.156  0.084
 6097.6   00  1.5136 -1.766e-02  0.401  0.401    1.80  0.4605  0.165  0.952  0.877  0.541  1.000  1.623  1.478  0.913  0.535  0.290  0.163  0.087
 5154.6   00  1.4668 -3.164e-03  0.401  0.401    1.80  0.5266  0.189  0.952  0.980  0.587  1.000  1.760  1.708  1.157  0.737  0.432  0.256  0.147
 4618.9   00  1.4861 -1.522e-03  0.401  0.401    1.80  0.7099  0.254  0.952  0.989  0.602  1.000  1.808  1.784  1.247  0.817  0.490  0.298  0.173
 4319.7   00  1.4910 -1.334e-03  0.401  0.401    1.80  0.8169  0.293  0.952  0.992  0.613  1.000  1.840  1.842  1.318  0.883  0.541  0.335  0.199
 4016.1   00  1.4809 -1.395e-03  0.401  0.401    1.80  0.9050  0.325  0.952  0.991  0.629  1.000  1.886  1.930  1.425  0.982  0.621  0.392  0.240
 3418.8   00  1.4811 -1.980e-03  0.401  0.401    1.80  1.1873  0.425  0.952  0.988  0.653  1.000  1.958  2.082  1.621  1.173  0.781  0.517  0.331
 3444.7   00  1.4813 -1.870e-03  0.401  0.401    1.80  1.1738  0.420  0.952  0.988  0.652  1.000  1.955  2.074  1.611  1.164  0.773  0.510  0.326
 2777.0   00  1.5810 -1.043e-02  0.401  0.401    1.80  1.9263  0.690  0.952  0.947  0.642  1.000  1.925  2.059  1.647  1.246  0.865  0.618  0.408
 2320.2   00  1.4064 -1.655e-03  0.401  0.401    1.80  1.6673  0.597  0.952  0.987  0.727  1.000  2.182  2.592  2.312  1.901  1.445  1.064  0.779
 2044.2   00  1.4453 -1.006e-03  0.401  0.401    1.80  2.0639  0.739  0.952  0.993  0.718  1.000  2.154  2.586  2.327  1.959  1.522  1.154  0.868
 1778.4   00  1.4504 -7.926e-04  0.401  0.401    1.80  2.3357  0.837  0.952  0.995  0.722  1.000  2.166  2.659  2.447  2.128  1.706  1.340  1.044
 1455.2   00  1.4629 -5.351e-04  0.401  0.401    1.80  2.6685  0.956  0.952  0.996  0.719  1.000  2.157  2.718  2.548  2.317  1.931  1.595  1.308
 1270.3   00  1.4701 -3.753e-04  0.401  0.401    1.80  2.8138  1.008  0.952  0.997  0.714  1.000  2.142  2.747  2.600  2.442  2.088  1.791  1.519
  944.3   00  1.4769 -8.241e-05  0.401  0.401    1.80  2.8984  1.037  0.952  0.998  0.705  1.000  2.114  2.816  2.718  2.751  2.486  2.319  2.110
  693.5   00  1.4899 -1.116e-07  0.401  0.401    1.80  2.7669  0.991  0.952  1.000  0.693  1.000  2.079  2.873  2.814  3.094  2.936  2.991  2.880
  527.1   00  1.5010 -1.264e-08  0.401  0.401    1.80  2.5895  0.927  0.952  1.000  0.694  1.000  2.083  2.961  2.954  3.462  3.399  3.690  3.673
  399.8   00  1.5001 -2.976e-08  0.401  0.401    1.80  2.4451  0.876  0.952  1.000  0.712  1.000  2.136  3.100  3.173  3.848  3.882  4.372  4.471
  329.1   00  1.5111 -7.774e-07  0.401  0.401    1.80  2.3732  0.850  0.952  1.000  0.722  1.000  2.167  3.176  3.290  4.076  4.155  4.796  4.939
  229.8   00  1.5101 -5.422e-06  0.401  0.401    1.80  2.2899  0.820  0.952  1.000  0.746  1.000  2.239  3.308  3.496  4.370  4.527  5.312  5.565
 7082.2   00  1.4040 -4.192e-03  0.401  0.401    1.80  0.1875  0.067  0.952  0.934  0.517  1.000  1.550  1.442  0.862  0.493  0.262  0.144  0.076
  300.0   50  1.3870 -4.900e-07  0.401  0.647    1.80  2.2511  0.500  1.534  1.000  0.798  1.000  2.393  3.594  4.023  4.739  5.133  5.712  6.245
  400.0   50  1.3770 -8.590e-09  0.401  0.647    1.80  2.3187  0.515  1.534  1.000  0.785  1.000  2.355  3.511  3.893  4.525  4.856  5.323  5.746
  440.0   50  1.3761 -6.448e-09  0.401  0.647    1.80  2.3496  0.522  1.534  1.000  0.779  1.000  2.338  3.474  3.833  4.436  4.736  5.165  5.544
  500.0   50  1.3740 -4.460e-09  0.401  0.647    1.80  2.3958  0.532  1.534  1.000  0.775  1.000  2.324  3.432  3.761  4.310  4.567  4.930  5.248
  550.0   50  1.3730 -3.880e-09  0.401  0.647    1.80  2.4387  0.542  1.534  1.000  0.771  1.000  2.312  3.397  3.705  4.215  4.432  4.745  5.011
  600.0   50  1.3700 -1.210e-08  0.401  0.647    1.80  2.4843  0.552  1.534  1.000  0.769  1.000  2.308  3.374  3.667  4.131  4.315  4.573  4.790
  675.0   50  1.3690 -2.029e-08  0.401  0.647    1.80  2.5498  0.567  1.534  1.000  0.767  1.000  2.301  3.340  3.610  4.013  4.146  4.332  4.480
  800.0   50  1.3650 -5.610e-07  0.401  0.647    1.80  2.6515  0.589  1.534  1.000  0.770  1.000  2.309  3.312  3.562  3.871  3.924  3.995  4.037
  870.0   50  1.3641 -4.393e-06  0.401  0.647    1.80  2.6995  0.600  1.534  1.000  0.771  1.000  2.314  3.300  3.539  3.803  3.816  3.832  3.824
 1000.0   50  1.3610 -3.590e-05  0.401  0.647    1.80  2.7678  0.615  1.534  0.999  0.777  1.000  2.331  3.291  3.521  3.709  3.658  3.584  3.492
 1020.0   50  1.3604 -3.316e-05  0.401  0.647    1.80  2.7757  0.617  1.534  0.999  0.778  1.000  2.334  3.291  3.520  3.697  3.637  3.551  3.447
55555.6   50  1.5860 -3.750e-01  0.401  0.647    1.80  0.2220  0.049  1.534  0.062  0.169  1.000  0.506  0.600  0.117  0.026  0.006  0.002  0.001
23529.4   50  1.5758 -3.223e-01  0.401  0.647    1.80  0.3257  0.072  1.534  0.133  0.261  1.000  0.783  0.726  0.223  0.071  0.024  0.009  0.003
17699.1   50  1.4981 -3.556e-01  0.401  0.647    1.80  0.5092  0.113  1.534  0.158  0.323  1.000  0.968  0.859  0.346  0.138  0.054  0.022  0.010
15037.6   50  1.3155 -3.151e-01  0.401  0.647    1.80  0.5349  0.119  1.534  0.127  0.364  1.000  1.093  0.993  0.479  0.216  0.097  0.046  0.022
13157.9   50  1.2160 -2.457e-01  0.401  0.647    1.80  0.4803  0.107  1.534  0.113  0.412  1.000  1.237  1.144  0.628  0.317  0.157  0.081  0.041
11111.1   50  1.2255 -8.401e-02  0.401  0.647    1.80  0.2507  0.056  1.534  0.233  0.510  1.000  1.530  1.467  0.937  0.550  0.312  0.179  0.104
 9708.7   50  1.3134 -3.947e-02  0.401  0.647    1.80  0.2696  0.060  1.534  0.580  0.565  1.000  1.695  1.659  1.119  0.700  0.415  0.247  0.145
 8849.6   50  1.3583 -3.669e-02  0.401  0.647    1.80  0.3715  0.082  1.534  0.677  0.589  1.000  1.767  1.743  1.209  0.775  0.467  0.281  0.167
 7782.1   50  1.3226 -2.872e-02  0.401  0.647    1.80  0.3917  0.087  1.534  0.722  0.631  1.000  1.891  1.953  1.460  1.002  0.645  0.411  0.259
 6968.6   50  1.3261 -1.957e-02  0.401  0.647    1.80  0.4580  0.101  1.534  0.787  0.658  1.000  1.976  2.102  1.642  1.176  0.787  0.519  0.336
 6097.6   50  1.3630 -8.208e-02  0.401  0.647    1.80  0.8477  0.189  1.534  0.550  0.679  1.000  2.036  2.178  1.758  1.286  0.886  0.598  0.399
 5154.6   50  1.3594 -3.856e-03  0.401  0.647    1.80  0.8562  0.191  1.534  0.961  0.714  1.000  2.140  2.432  2.085  1.631  1.184  0.838  0.580
 4618.9   50  1.3669 -1.222e-02  0.401  0.647    1.80  1.0895  0.242  1.534  0.914  0.726  1.000  2.180  2.524  2.220  1.777  1.321  0.955  0.676
 4319.7   50  1.3743 -7.599e-03  0.401  0.647    1.80  1.2223  0.272  1.534  0.946  0.732  1.000  2.197  2.576  2.297  1.867  1.408  1.031  0.739
 4016.1   50  1.3816 -3.930e-03  0.401  0.647    1.80  1.3840  0.308  1.534  0.972  0.736  1.000  2.207  2.623  2.366  1.952  1.492  1.107  0.805
 3418.8   50  1.4309 -1.489e-02  0.401  0.647    1.80  1.9206  0.426  1.534  0.914  0.734  1.000  2.204  2.633  2.407  2.021  1.581  1.200  0.901
 3444.7   50  1.4264 -1.222e-02  0.401  0.647    1.80  1.8881  0.419  1.534  0.928  0.734  1.000  2.203  2.635  2.406  2.019  1.577  1.195  0.896
 2777.0   50  1.3509 -1.739e-01  0.401  0.647    1.80  1.8934  0.421  1.534  0.614  0.817  1.000  2.452  3.191  3.298  3.072  2.679  2.252  1.846
 2320.2   50  1.3061  3.270e-02  0.401  0.647    1.80  1.9937  0.443  1.534  1.000  0.812  1.000  2.437  3.254  3.396  3.229  2.864  2.442  2.038
 2044.2   50  1.3366  3.125e-03  0.401  0.647    1.80  2.3685  0.526  1.534  0.999  0.803  1.000  2.410  3.231  3.371  3.234  2.899  2.507  2.134
 1778.4   50  1.3456 -9.939e-04  0.401  0.647    1.80  2.5916  0.576  1.534  0.996  0.798  1.000  2.396  3.249  3.414  3.332  3.041  2.689  2.348
 1455.2   50  1.3552 -4.535e-04  0.401  0.647    1.80  2.7728  0.616  1.534  0.997  0.791  1.000  2.372  3.260  3.449  3.453  3.238  2.964  2.690
 1270.3   50  1.3579 -1.412e-04  0.401  0.647    1.80  2.8116  0.625  1.534  0.999  0.786  1.000  2.357  3.271  3.477  3.545  3.386  3.176  2.961
  944.3   50  1.3630 -2.516e-05  0.401  0.647    1.80  2.7417  0.609  1.534  1.000  0.774  1.000  2.323  3.292  3.523  3.742  3.718  3.681  3.624
  693.5   50  1.3690 -5.004e-08  0.401  0.647    1.80  2.5648  0.570  1.534  1.000  0.767  1.000  2.301  3.333  3.598  3.987  4.106  4.276  4.407
  527.1   50  1.3735 -3.516e-09  0.401  0.647    1.80  2.4186  0.537  1.534  1.000  0.773  1.000  2.317  3.412  3.729  4.257  4.492  4.828  5.118
  399.8   50  1.3770 -8.547e-09  0.401  0.647    1.80  2.3185  0.515  1.534  1.000  0.785  1.000  2.355  3.511  3.893  4.526  4.857  5.324  5.747
  329.1   50  1.3844 -1.929e-07  0.401  0.647    1.80  2.2689  0.504  1.534  1.000  0.794  1.000  2.381  3.568  3.984  4.675  5.051  5.596  6.097
  229.8   50  1.3985 -1.323e-06  0.401  0.647    1.80  2.2131  0.492  1.534  1.000  0.806  1.000  2.417  3.636  4.083  4.842  5.261  5.912  6.520
 7082.2   50  1.3324 -2.286e-02  0.401  0.647    1.80  0.4669  0.103  1.534  0.778  0.653  1.000  1.961  2.070  1.603  1.138  0.755  0.494  0.318
  300.0   70  1.3760 -3.500e-07  0.401  0.727    1.80  2.2297  0.441  1.725  1.000  0.808  1.000  2.424  3.651  4.128  4.834  5.276  5.855  6.434
  400.0   70  1.3660 -6.590e-09  0.401  0.727    1.80  2.2902  0.453  1.725  1.000  0.795  1.000  2.386  3.576  4.009  4.647  5.032  5.515  5.985
  440.0   70  1.3642 -4.842e-09  0.401  0.727    1.80  2.3169  0.458  1.725  1.000  0.790  1.000  2.371  3.544  3.956  4.567  4.927  5.374  5.804
  500.0   70  1.3630 -3.440e-09  0.401  0.727    1.80  2.3568  0.466  1.725  1.000  0.785  1.000  2.354  3.499  3.882  4.452  4.765  5.161  5.530
  550.0   70  1.3610 -3.310e-09  0.401  0.727    1.80  2.3956  0.474  1.725  1.000  0.781  1.000  2.342  3.467  3.828  4.361  4.641  4.992  5.313
  600.0   70  1.3590 -1.180e-08  0.401  0.727    1.80  2.4339  0.481  1.725  1.000  0.779  1.000  2.336  3.441  3.786  4.279  4.525  4.828  5.102
  675.0   70  1.3580 -2.118e-08  0.401  0.727    1.80  2.4941  0.493  1.725  1.000  0.776  1.000  2.327  3.405  3.725  4.166  4.361  4.598  4.803
  800.0   70  1.3540 -4.320e-07  0.401  0.727    1.80  2.5923  0.512  1.725  1.000  0.777  1.000  2.330  3.372  3.670  4.023  4.140  4.269  4.369
  870.0   70  1.3538 -2.661e-06  0.401  0.727    1.80  2.6413  0.522  1.725  1.000  0.777  1.000  2.331  3.356  3.640  3.952  4.029  4.105  4.154
 1000.0   70  1.3510 -2.610e-05  0.401  0.727    1.80  2.7188  0.537  1.725  1.000  0.782  1.000  2.345  3.344  3.618  3.858  3.869  3.855  3.817
 1020.0   70  1.3503 -2.120e-05  0.401  0.727    1.80  2.7288  0.539  1.725  1.000  0.783  1.000  2.348  3.344  3.617  3.847  3.848  3.822  3.771
55555.6   70  1.5700 -3.640e-01  0.401  0.727    1.80  0.2512  0.050  1.725  0.076  0.192  1.000  0.576  0.628  0.142  0.035  0.009  0.003  0.001
23529.4   70  1.5588 -3.345e-01  0.401  0.727    1.80  0.3930  0.078  1.725  0.149  0.287  1.000  0.861  0.774  0.266  0.093  0.032  0.013  0.005
17699.1   70  1.4721 -3.770e-01  0.401  0.727    1.80  0.6108  0.120  1.725  0.167  0.349  1.000  1.047  0.925  0.412  0.176  0.075  0.033  0.015
15037.6   70  1.3024 -3.411e-01  0.401  0.727    1.80  0.6435  0.127  1.725  0.139  0.393  1.000  1.181  1.075  0.562  0.273  0.130  0.063  0.031
13157.9   70  1.1977 -2.677e-01  0.401  0.727    1.80  0.5735  0.113  1.725  0.123  0.445  1.000  1.335  1.249  0.737  0.397  0.209  0.111  0.060
11111.1   70  1.2022 -9.057e-02  0.401  0.727    1.80  0.2940  0.058  1.725  0.218  0.548  1.000  1.644  1.620  1.107  0.691  0.415  0.249  0.151
 9708.7   70  1.2901 -4.157e-02  0.401  0.727    1.80  0.3106  0.062  1.725  0.567  0.603  1.000  1.807  1.828  1.320  0.874  0.548  0.342  0.211
 8849.6   70  1.3310 -3.734e-02  0.401  0.727    1.80  0.4181  0.083  1.725  0.670  0.625  1.000  1.875  1.920  1.421  0.965  0.616  0.390  0.243
 7782.1   70  1.3157 -3.035e-02  0.401  0.727    1.80  0.4755  0.094  1.725  0.725  0.662  1.000  1.987  2.118  1.668  1.199  0.807  0.535  0.349
 6968.6   70  1.3199 -2.133e-02  0.401  0.727    1.80  0.5626  0.111  1.725  0.786  0.687  1.000  2.062  2.263  1.854  1.385  0.966  0.660  0.443
 6097.6   70  1.3484 -8.808e-02  0.401  0.727    1.80  0.9658  0.191  1.725  0.540  0.707  1.000  2.122  2.350  1.989  1.521  1.095  0.770  0.533
 5154.6   70  1.3490 -3.932e-03  0.401  0.727    1.80  0.9930  0.196  1.725  0.958  0.736  1.000  2.209  2.589  2.311  1.877  1.415  1.037  0.742
 4618.9   70  1.3557 -1.326e-02  0.401  0.727    1.80  1.2405  0.245  1.725  0.909  0.748  1.000  2.244  2.675  2.444  2.028  1.565  1.170  0.856
 4319.7   70  1.3636 -8.224e-03  0.401  0.727    1.80  1.3839  0.274  1.725  0.942  0.752  1.000  2.256  2.720  2.514  2.114  1.652  1.250  0.925
 4016.1   70  1.3724 -4.170e-03  0.401  0.727    1.80  1.5612  0.309  1.725  0.971  0.753  1.000  2.259  2.754  2.569  2.187  1.729  1.322  0.992
 3418.8   70  1.4261 -1.610e-02  0.401  0.727    1.80  2.1141  0.418  1.725  0.906  0.747  1.000  2.242  2.737  2.571  2.223  1.795  1.404  1.087
 3444.7   70  1.4212 -1.319e-02  0.401  0.727    1.80  2.0823  0.411  1.725  0.922  0.747  1.000  2.240  2.739  2.571  2.221  1.790  1.398  1.080
 2777.0   70  1.3295 -1.895e-01  0.401  0.727    1.80  1.9610  0.387  1.725  0.611  0.836  1.000  2.509  3.361  3.591  3.454  3.112  2.698  2.279
 2320.2   70  1.2969  3.599e-02  0.401  0.727    1.80  2.1367  0.422  1.725  1.000  0.823  1.000  2.469  3.353  3.577  3.475  3.159  2.760  2.358
 2044.2   70  1.3267  3.529e-03  0.401  0.727    1.80  2.4813  0.490  1.725  0.998  0.812  1.000  2.437  3.317  3.529  3.456  3.170  2.806  2.443
 1778.4   70  1.3355 -1.014e-03  0.401  0.727    1.80  2.6683  0.527  1.725  0.996  0.806  1.000  2.418  3.324  3.551  3.530  3.292  2.976  2.656
 1455.2   70  1.3452 -4.464e-04  0.401  0.727    1.80  2.7930  0.552  1.725  0.997  0.796  1.000  2.388  3.322  3.564  3.627  3.468  3.240  3.002
 1270.3   70  1.3479 -1.196e-04  0.401  0.727    1.80  2.8000  0.554  1.725  0.999  0.791  1.000  2.371  3.328  3.581  3.706  3.605  3.448  3.276
  944.3   70  1.3531 -1.983e-05  0.401  0.727    1.80  2.6876  0.531  1.725  1.000  0.779  1.000  2.337  3.345  3.620  3.891  3.928  3.952  3.951
  693.5   70  1.3580 -4.427e-08  0.401  0.727    1.80  2.5086  0.496  1.725  1.000  0.775  1.000  2.325  3.397  3.711  4.139  4.321  4.544  4.733
  527.1   70  1.3620 -2.665e-09  0.401  0.727    1.80  2.3775  0.470  1.725  1.000  0.783  1.000  2.347  3.481  3.851  4.402  4.696  5.068  5.411
  399.8   70  1.3660 -6.564e-09  0.401  0.727    1.80  2.2900  0.453  1.725  1.000  0.795  1.000  2.386  3.576  4.009  4.647  5.033  5.516  5.986
  329.1   70  1.3726 -1.387e-07  0.401  0.727    1.80  2.2468  0.444  1.725  1.000  0.805  1.000  2.413  3.629  4.094  4.779  5.208  5.757  6.305
  229.8   70  1.3886 -9.420e-07  0.401  0.727    1.80  2.1949  0.434  1.725  1.000  0.815  1.000  2.444  3.686  4.174  4.920  5.381  6.027  6.675
 7082.2   70  1.3253 -2.464e-02  0.401  0.727    1.80  0.5679  0.112  1.725  0.777  0.683  1.000  2.048  2.233  1.815  1.345  0.931  0.632  0.422
  300.0   80  1.3690 -2.660e-07  0.401  0.800    1.80  2.2133  0.397  1.899  1.000  0.815  1.000  2.446  3.692  4.203  4.903  5.381  5.962  6.572
  400.0   80  1.3590 -5.410e-09  0.401  0.800    1.80  2.2694  0.407  1.899  1.000  0.803  1.000  2.409  3.623  4.093  4.737  5.164  5.662  6.168
  440.0   80  1.3581 -3.867e-09  0.401  0.800    1.80  2.2902  0.411  1.899  1.000  0.799  1.000  2.396  3.593  4.043  4.664  5.062  5.530  5.998
  500.0   80  1.3560 -2.830e-09  0.401  0.800    1.80  2.3285  0.418  1.899  1.000  0.792  1.000  2.377  3.549  3.971  4.557  4.917  5.339  5.749
  550.0   80  1.3540 -2.970e-09  0.401  0.800    1.80  2.3610  0.424  1.899  1.000  0.788  1.000  2.365  3.518  3.920  4.473  4.798  5.179  5.541
  600.0   80  1.3520 -1.150e-08  0.401  0.800    1.80  2.3968  0.430  1.899  1.000  0.785  1.000  2.355  3.490  3.873  4.394  4.687  5.026  5.342
  675.0   80  1.3510 -2.194e-08  0.401  0.800    1.80  2.4499  0.440  1.899  1.000  0.782  1.000  2.346  3.453  3.811  4.282  4.527  4.805  5.058
  800.0   80  1.3480 -3.550e-07  0.401  0.800    1.80  2.5422  0.456  1.899  1.000  0.781  1.000  2.342  3.413  3.743  4.134  4.302  4.480  4.631
  870.0   80  1.3471 -1.619e-06  0.401  0.800    1.80  2.5911  0.465  1.899  1.000  0.781  1.000  2.343  3.396  3.714  4.065  4.193  4.319  4.418
 1000.0   80  1.3450 -2.030e-05  0.401  0.800    1.80  2.6722  0.480  1.899  1.000  0.784  1.000  2.352  3.379  3.684  3.966  4.027  4.065  4.076
 1020.0   80  1.3446 -1.411e-05  0.401  0.800    1.80  2.6832  0.482  1.899  1.000  0.785  1.000  2.354  3.378  3.681  3.953  4.005  4.030  4.029
55555.6   80  1.5610 -3.570e-01  0.401  0.800    1.80  0.2797  0.050  1.899  0.090  0.213  1.000  0.638  0.656  0.165  0.045  0.013  0.004  0.001
23529.4   80  1.5481 -3.418e-01  0.401  0.800    1.80  0.4537  0.081  1.899  0.164  0.310  1.000  0.929  0.821  0.308  0.116  0.043  0.017  0.008
17699.1   80  1.4565 -3.901e-01  0.401  0.800    1.80  0.6973  0.125  1.899  0.179  0.373  1.000  1.119  0.990  0.473  0.215  0.096  0.045  0.021
15037.6   80  1.2954 -3.571e-01  0.401  0.800    1.80  0.7322  0.131  1.899  0.152  0.419  1.000  1.258  1.155  0.643  0.330  0.166  0.084  0.043
13157.9   80  1.1871 -2.801e-01  0.401  0.800    1.80  0.6489  0.116  1.899  0.134  0.473  1.000  1.418  1.346  0.840  0.477  0.263  0.145  0.082
11111.1   80  1.1880 -9.457e-02  0.401  0.800    1.80  0.3316  0.059  1.899  0.214  0.579  1.000  1.737  1.754  1.263  0.825  0.518  0.323  0.202
 9708.7   80  1.2756 -4.290e-02  0.401  0.800    1.80  0.3502  0.063  1.899  0.563  0.633  1.000  1.896  1.974  1.497  1.037  0.678  0.439  0.281
 8849.6   80  1.3151 -3.770e-02  0.401  0.800    1.80  0.4668  0.084  1.899  0.670  0.653  1.000  1.959  2.068  1.605  1.138  0.758  0.497  0.321
 7782.1   80  1.3108 -3.133e-02  0.401  0.800    1.80  0.5539  0.099  1.899  0.731  0.687  1.000  2.059  2.254  1.846  1.376  0.960  0.657  0.440
 6968.6   80  1.3172 -2.227e-02  0.401  0.800    1.80  0.6638  0.120  1.899  0.788  0.709  1.000  2.127  2.391  2.030  1.566  1.126  0.792  0.546
 6097.6   80  1.3401 -9.164e-02  0.401  0.800    1.80  1.0714  0.193  1.899  0.538  0.729  1.000  2.187  2.487  2.183  1.727  1.286  0.932  0.664
 5154.6   80  1.3429 -4.036e-03  0.401  0.800    1.80  1.1220  0.201  1.899  0.957  0.753  1.000  2.259  2.708  2.491  2.080  1.613  1.213  0.891
 4618.9   80  1.3490 -1.387e-02  0.401  0.800    1.80  1.3781  0.247  1.899  0.906  0.763  1.000  2.290  2.789  2.622  2.234  1.772  1.359  1.020
 4319.7   80  1.3566 -8.559e-03  0.401  0.800    1.80  1.5261  0.274  1.899  0.939  0.766  1.000  2.298  2.829  2.685  2.317  1.860  1.442  1.095
 4016.1   80  1.3663 -4.316e-03  0.401  0.800    1.80  1.7138  0.308  1.899  0.969  0.765  1.000  2.294  2.852  2.725  2.377  1.927  1.509  1.160
 3418.8   80  1.4229 -1.683e-02  0.401  0.800    1.80  2.2638  0.406  1.899  0.900  0.756  1.000  2.267  2.814  2.699  2.386  1.973  1.581  1.256
 3444.7   80  1.4179 -1.377e-02  0.401  0.800    1.80  2.2354  0.401  1.899  0.917  0.756  1.000  2.265  2.816  2.696  2.383  1.966  1.571  1.245
 2777.0   80  1.3165 -1.986e-01  0.401  0.800    1.80  2.0237  0.363  1.899  0.612  0.850  1.000  2.551  3.486  3.813  3.755  3.464  3.073  2.654
 2320.2   80  1.2917  3.790e-02  0.401  0.800    1.80  2.2592  0.406  1.899  1.000  0.830  1.000  2.488  3.416  3.698  3.649  3.374  3.001  2.609
 2044.2   80  1.3209  3.752e-03  0.401  0.800    1.80  2.5673  0.461  1.899  0.997  0.817  1.000  2.451  3.373  3.635  3.612  3.368  3.035  2.689
 1778.4   80  1.3294 -1.025e-03  0.401  0.800    1.80  2.7195  0.488  1.899  0.996  0.810  1.000  2.430  3.371  3.643  3.669  3.475  3.194  2.899
 1455.2   80  1.3401 -4.426e-04  0.401  0.800    1.80  2.7971  0.503  1.899  0.997  0.797  1.000  2.393  3.357  3.630  3.740  3.626  3.442  3.243
 1270.3   80  1.3419 -1.066e-04  0.401  0.800    1.80  2.7784  0.499  1.899  0.999  0.793  1.000  2.377  3.363  3.647  3.817  3.764  3.656  3.527
  944.3   80  1.3463 -1.668e-05  0.401  0.800    1.80  2.6391  0.474  1.899  1.000  0.782  1.000  2.347  3.384  3.692  4.003  4.091  4.167  4.214
  693.5   80  1.3510 -4.100e-08  0.401  0.800    1.80  2.4633  0.442  1.899  1.000  0.781  1.000  2.344  3.445  3.797  4.256  4.488  4.752  4.990
  527.1   80  1.3549 -2.167e-09  0.401  0.800    1.80  2.3461  0.421  1.899  1.000  0.790  1.000  2.370  3.532  3.942  4.511  4.852  5.252  5.636
  399.8   80  1.3590 -5.395e-09  0.401  0.800    1.80  2.2692  0.407  1.899  1.000  0.803  1.000  2.409  3.623  4.093  4.737  5.165  5.663  6.169
  329.1   80  1.3655 -1.060e-07  0.401  0.800    1.80  2.2276  0.400  1.899  1.000  0.812  1.000  2.437  3.674  4.176  4.859  5.320  5.874  6.450
  229.8   80  1.3828 -7.155e-07  0.401  0.800    1.80  2.1807  0.391  1.899  1.000  0.822  1.000  2.464  3.721  4.238  4.973  5.468  6.111  6.794
 7082.2   80  1.3219 -2.560e-02  0.401  0.800    1.80  0.6660  0.120  1.899  0.779  0.705  1.000  2.115  2.362  1.991  1.525  1.090  0.762  0.521
  300.0   90  1.3610 -1.620e-07  0.401  0.959    1.80  2.1893  0.328  2.274  1.000  0.825  1.000  2.476  3.751  4.309  5.009  5.538  6.130  6.791
  400.0   90  1.3510 -3.930e-09  0.401  0.959    1.80  2.2336  0.335  2.274  1.000  0.816  1.000  2.447  3.697  4.226  4.881  5.370  5.892  6.459
  440.0   90  1.3493 -2.678e-09  0.401  0.959    1.80  2.2536  0.338  2.274  1.000  0.811  1.000  2.432  3.669  4.180  4.823  5.287  5.788  6.317
  500.0   90  1.3470 -2.060e-09  0.401  0.959    1.80  2.2788  0.342  2.274  1.000  0.806  1.000  2.418  3.634  4.123  4.735  5.166  5.629  6.109
  550.0   90  1.3450 -2.550e-09  0.401  0.959    1.80  2.3068  0.346  2.274  1.000  0.801  1.000  2.403  3.602  4.070  4.659  5.064  5.496  5.934
  600.0   90  1.3440 -1.130e-08  0.401  0.959    1.80  2.3343  0.350  2.274  1.000  0.797  1.000  2.390  3.572  4.020  4.585  4.959  5.360  5.756
  675.0   90  1.3430 -2.251e-08  0.401  0.959    1.80  2.3758  0.356  2.274  1.000  0.792  1.000  2.376  3.534  3.954  4.479  4.808  5.159  5.500
  800.0   90  1.3400 -2.591e-07  0.401  0.959    1.80  2.4534  0.368  2.274  1.000  0.788  1.000  2.364  3.485  3.872  4.329  4.588  4.854  5.100
  870.0   90  1.3392 -3.276e-07  0.401  0.959    1.80  2.4971  0.374  2.274  1.000  0.787  1.000  2.361  3.463  3.835  4.257  4.477  4.697  4.893
 1000.0   90  1.3370 -1.300e-05  0.401  0.959    1.80  2.5767  0.386  2.274  1.000  0.788  1.000  2.363  3.438  3.791  4.149  4.304  4.441  4.552
 1020.0   90  1.3366 -5.226e-06  0.401  0.959    1.80  2.5884  0.388  2.274  1.000  0.788  1.000  2.364  3.436  3.787  4.135  4.281  4.405  4.504
55555.6   90  1.5490 -3.480e-01  0.401  0.959    1.80  0.3463  0.052  2.274  0.119  0.254  1.000  0.763  0.720  0.220  0.070  0.023  0.008  0.003
23529.4   90  1.5357 -3.511e-01  0.401  0.959    1.80  0.5834  0.087  2.274  0.195  0.355  1.000  1.067  0.924  0.403  0.171  0.071  0.031  0.014
17699.1   90  1.4366 -4.053e-01  0.401  0.959    1.80  0.8675  0.130  2.274  0.204  0.421  1.000  1.264  1.131  0.614  0.312  0.153  0.077  0.039
15037.6   90  1.2852 -3.761e-01  0.401  0.959    1.80  0.8994  0.135  2.274  0.179  0.471  1.000  1.414  1.327  0.824  0.467  0.255  0.141  0.078
13157.9   90  1.1736 -2.956e-01  0.401  0.959    1.80  0.7889  0.118  2.274  0.158  0.528  1.000  1.583  1.555  1.071  0.665  0.397  0.237  0.142
11111.1   90  1.1705 -9.941e-02  0.401  0.959    1.80  0.4093  0.061  2.274  0.222  0.637  1.000  1.911  2.026  1.593  1.131  0.765  0.510  0.339
 9708.7   90  1.2578 -4.453e-02  0.401  0.959    1.80  0.4434  0.067  2.274  0.573  0.684  1.000  2.053  2.253  1.855  1.385  0.975  0.673  0.456
 8849.6   90  1.2948 -3.815e-02  0.401  0.959    1.80  0.5831  0.088  2.274  0.679  0.702  1.000  2.105  2.343  1.970  1.502  1.072  0.749  0.514
 7782.1   90  1.3060 -3.254e-02  0.401  0.959    1.80  0.7338  0.111  2.274  0.745  0.727  1.000  2.182  2.503  2.189  1.733  1.284  0.925  0.653
 6968.6   90  1.3131 -2.359e-02  0.401  0.959    1.80  0.8836  0.132  2.274  0.796  0.745  1.000  2.234  2.624  2.365  1.929  1.467  1.083  0.782
 6097.6   90  1.3297 -9.614e-02  0.401  0.959    1.80  1.2840  0.193  2.274  0.543  0.765  1.000  2.297  2.737  2.552  2.141  1.689  1.290  0.968
 5154.6   90  1.3359 -4.060e-03  0.401  0.959    1.80  1.4024  0.210  2.274  0.955  0.778  1.000  2.334  2.905  2.803  2.450  1.993  1.565  1.199
 4618.9   90  1.3412 -1.458e-02  0.401  0.959    1.80  1.6641  0.249  2.274  0.901  0.786  1.000  2.360  2.977  2.926  2.606  2.164  1.734  1.358
 4319.7   90  1.3487 -8.967e-03  0.401  0.959    1.80  1.8194  0.273  2.274  0.935  0.787  1.000  2.360  3.003  2.972  2.674  2.243  1.814  1.437
 4016.1   90  1.3593 -4.482e-03  0.401  0.959    1.80  2.0140  0.302  2.274  0.967  0.782  1.000  2.346  3.007  2.982  2.707  2.287  1.865  1.495
 3418.8   90  1.4195 -1.772e-02  0.401  0.959    1.80  2.5115  0.377  2.274  0.888  0.768  1.000  2.304  2.936  2.910  2.676  2.309  1.932  1.605
 3444.7   90  1.4143 -1.449e-02  0.401  0.959    1.80  2.4910  0.374  2.274  0.907  0.767  1.000  2.301  2.936  2.904  2.668  2.295  1.915  1.586
 2777.0   90  1.3012 -2.101e-01  0.401  0.959    1.80  2.1508  0.322  2.274  0.620  0.871  1.000  2.611  3.687  4.184  4.281  4.107  3.788  3.398
 2320.2   90  1.2848  4.032e-02  0.401  0.959    1.80  2.4741  0.371  2.274  1.000  0.837  1.000  2.511  3.505  3.873  3.913  3.718  3.402  3.048
 2044.2   90  1.3140  4.050e-03  0.401  0.959    1.80  2.6947  0.404  2.274  0.995  0.822  1.000  2.465  3.447  3.781  3.845  3.683  3.418  3.124
 1778.4   90  1.3225 -1.041e-03  0.401  0.959    1.80  2.7746  0.416  2.274  0.996  0.812  1.000  2.436  3.431  3.759  3.869  3.760  3.558  3.328
 1455.2   90  1.3320 -4.365e-04  0.401  0.959    1.80  2.7647  0.415  2.274  0.997  0.799  1.000  2.398  3.410  3.734  3.924  3.900  3.810  3.692
 1270.3   90  1.3339 -9.035e-05  0.401  0.959    1.80  2.7100  0.406  2.274  0.999  0.794  1.000  2.381  3.414  3.745  3.994  4.034  4.023  3.984
  944.3   90  1.3383 -1.270e-05  0.401  0.959    1.80  2.5429  0.381  2.274  1.000  0.787  1.000  2.361  3.446  3.805  4.190  4.372  4.545  4.691
  693.5   90  1.3430 -3.665e-08  0.401  0.959    1.80  2.3865  0.357  2.274  1.000  0.791  1.000  2.373  3.524  3.937  4.454  4.772  5.111  5.438
  527.1   90  1.3458 -1.527e-09  0.401  0.959    1.80  2.2934  0.344  2.274  1.000  0.803  1.000  2.410  3.617  4.095  4.694  5.111  5.557  6.015
  399.8   90  1.3510 -3.927e-09  0.401  0.959    1.80  2.2335  0.335  2.274  1.000  0.816  1.000  2.447  3.697  4.226  4.881  5.370  5.893  6.460
  329.1   90  1.3568 -6.588e-08  0.401  0.959    1.80  2.2017  0.330  2.274  1.000  0.823  1.000  2.470  3.738  4.292  4.975  5.494  6.062  6.694
  229.8   90  1.3747 -4.312e-07  0.401  0.959    1.80  2.1637  0.325  2.274  1.000  0.828  1.000  2.485  3.766  4.322  5.060  5.597  6.249  6.969
 7082.2   90  1.3168 -2.696e-02  0.401  0.959    1.80  0.8783  0.132  2.274  0.787  0.741  1.000  2.225  2.599  2.329  1.888  1.428  1.050  0.754
  300.0   95  1.3550 -9.570e-08  0.401  1.172    1.80  2.1657  0.266  2.780  1.000  0.835  1.000  2.504  3.804  4.406  5.102  5.683  6.285  7.000
  400.0   95  1.3450 -2.990e-09  0.401  1.172    1.80  2.2029  0.270  2.780  1.000  0.827  1.000  2.481  3.762  4.344  5.009  5.555  6.102  6.728
  440.0   95  1.3441 -1.904e-09  0.401  1.172    1.80  2.2150  0.272  2.780  1.000  0.824  1.000  2.471  3.742  4.311  4.964  5.490  6.018  6.614
  500.0   95  1.3420 -1.580e-09  0.401  1.172    1.80  2.2384  0.274  2.780  1.000  0.818  1.000  2.453  3.708  4.254  4.891  5.391  5.893  6.445
  550.0   95  1.3400 -2.280e-09  0.401  1.172    1.80  2.2574  0.277  2.780  1.000  0.814  1.000  2.441  3.682  4.211  4.832  5.307  5.786  6.301
  600.0   95  1.3380 -1.110e-08  0.401  1.172    1.80  2.2783  0.279  2.780  1.000  0.810  1.000  2.429  3.657  4.169  4.770  5.222  5.676  6.155
  675.0   95  1.3370 -2.302e-08  0.401  1.172    1.80  2.3116  0.284  2.780  1.000  0.803  1.000  2.410  3.616  4.100  4.676  5.089  5.508  5.936
  800.0   95  1.3350 -1.980e-07  0.401  1.172    1.80  2.3682  0.290  2.780  1.000  0.797  1.000  2.391  3.563  4.009  4.532  4.882  5.235  5.581
  870.0   95  1.3342  4.915e-07  0.401  1.172    1.80  2.4029  0.295  2.780  1.000  0.795  1.000  2.383  3.536  3.964  4.458  4.773  5.088  5.390
 1000.0   95  1.3330 -8.440e-06  0.401  1.172    1.80  2.4698  0.303  2.780  1.000  0.792  1.000  2.375  3.498  3.899  4.337  4.591  4.836  5.060
 1020.0   95  1.3327  3.548e-07  0.401  1.172    1.80  2.4803  0.304  2.780  1.000  0.792  1.000  2.374  3.494  3.891  4.321  4.566  4.800  5.012
55555.6   95  1.5410 -3.430e-01  0.401  1.172    1.80  0.4445  0.055  2.780  0.158  0.305  1.000  0.915  0.813  0.301  0.112  0.041  0.017  0.007
23529.4   95  1.5270 -3.567e-01  0.401  1.172    1.80  0.7544  0.092  2.780  0.233  0.410  1.000  1.230  1.068  0.540  0.259  0.121  0.058  0.028
17699.1   95  1.4241 -4.158e-01  0.401  1.172    1.80  1.0696  0.131  2.780  0.236  0.478  1.000  1.434  1.321  0.813  0.461  0.251  0.137  0.077
15037.6   95  1.2792 -3.881e-01  0.401  1.172    1.80  1.0877  0.133  2.780  0.212  0.531  1.000  1.594  1.558  1.076  0.674  0.404  0.241  0.145
13157.9   95  1.1659 -3.051e-01  0.401  1.172    1.80  0.9465  0.116  2.780  0.188  0.590  1.000  1.770  1.823  1.382  0.942  0.612  0.394  0.252
11111.1   95  1.1593 -1.025e-01  0.401  1.172    1.80  0.5089  0.063  2.780  0.242  0.698  1.000  2.092  2.349  2.013  1.551  1.133  0.809  0.572
 9708.7   95  1.2469 -4.547e-02  0.401  1.172    1.80  0.5809  0.071  2.780  0.594  0.736  1.000  2.208  2.562  2.282  1.834  1.384  1.016  0.732
 8849.6   95  1.2827 -3.847e-02  0.401  1.172    1.80  0.7587  0.093  2.780  0.696  0.748  1.000  2.245  2.637  2.387  1.950  1.490  1.106  0.804
 7782.1   95  1.3021 -3.330e-02  0.401  1.172    1.80  0.9770  0.119  2.780  0.760  0.766  1.000  2.298  2.764  2.577  2.167  1.702  1.295  0.962
 6968.6   95  1.3099 -2.436e-02  0.401  1.172    1.80  1.1719  0.143  2.780  0.805  0.778  1.000  2.334  2.864  2.732  2.353  1.891  1.468  1.114
 6097.6   95  1.3235 -9.880e-02  0.401  1.172    1.80  1.5371  0.188  2.780  0.554  0.800  1.000  2.399  2.994  2.960  2.631  2.198  1.774  1.402
 5154.6   95  1.3313 -4.099e-03  0.401  1.172    1.80  1.7454  0.214  2.780  0.951  0.800  1.000  2.399  3.090  3.112  2.842  2.420  1.984  1.590
 4618.9   95  1.3352 -1.504e-02  0.401  1.172    1.80  1.9888  0.244  2.780  0.898  0.806  1.000  2.419  3.153  3.226  2.999  2.605  2.179  1.786
 4319.7   95  1.3431 -9.251e-03  0.401  1.172    1.80  2.1426  0.263  2.780  0.931  0.804  1.000  2.410  3.160  3.245  3.040  2.660  2.244  1.858
 4016.1   95  1.3552 -4.597e-03  0.401  1.172    1.80  2.3307  0.286  2.780  0.964  0.795  1.000  2.383  3.139  3.215  3.029  2.664  2.263  1.894
 3418.8   95  1.4171 -1.828e-02  0.401  1.172    1.80  2.7046  0.332  2.780  0.873  0.777  1.000  2.330  3.047  3.114  2.983  2.689  2.360  2.059
 3444.7   95  1.4117 -1.494e-02  0.401  1.172    1.80  2.6948  0.330  2.780  0.894  0.775  1.000  2.326  3.045  3.102  2.966  2.663  2.328  2.025
 2777.0   95  1.2917 -2.176e-01  0.401  1.172    1.80  2.2825  0.281  2.780  0.632  0.887  1.000  2.660  3.861  4.528  4.799  4.779  4.577  4.262
 2320.2   95  1.2807  4.188e-02  0.401  1.172    1.80  2.6598  0.326  2.780  1.000  0.840  1.000  2.520  3.563  3.996  4.117  4.007  3.769  3.474
 2044.2   95  1.3090  4.231e-03  0.401  1.172    1.80  2.7598  0.338  2.780  0.991  0.823  1.000  2.469  3.500  3.890  4.040  3.973  3.801  3.587
 1778.4   95  1.3184 -1.051e-03  0.401  1.172    1.80  2.7629  0.338  2.780  0.996  0.810  1.000  2.430  3.468  3.839  4.033  4.019  3.920  3.783
 1455.2   95  1.3278 -4.337e-04  0.401  1.172    1.80  2.6811  0.329  2.780  0.996  0.798  1.000  2.392  3.447  3.808  4.085  4.161  4.185  4.177
 1270.3   95  1.3288 -8.024e-05  0.401  1.172    1.80  2.6060  0.319  2.780  0.999  0.793  1.000  2.381  3.459  3.831  4.165  4.306  4.410  4.485
  944.3   95  1.3336 -1.023e-05  0.401  1.172    1.80  2.4407  0.300  2.780  1.000  0.793  1.000  2.378  3.512  3.924  4.386  4.665  4.940  5.197
  693.5   95  1.3370 -3.403e-08  0.401  1.172    1.80  2.3195  0.285  2.780  1.000  0.802  1.000  2.406  3.607  4.084  4.653  5.056  5.467  5.883
  527.1   95  1.3409 -1.128e-09  0.401  1.172    1.80  2.2488  0.276  2.780  1.000  0.816  1.000  2.446  3.694  4.230  4.859  5.346  5.835  6.367
  399.8   95  1.3450 -2.997e-09  0.401  1.172    1.80  2.2028  0.270  2.780  1.000  0.827  1.000  2.481  3.762  4.344  5.009  5.555  6.102  6.729
  329.1   95  1.3514 -4.021e-08  0.401  1.172    1.80  2.1775  0.267  2.780  1.000  0.832  1.000  2.497  3.792  4.389  5.076  5.648  6.233  6.920
  229.8   95  1.3699 -2.523e-07  0.401  1.172    1.80  2.1413  0.263  2.780  1.000  0.837  1.000  2.511  3.811  4.403  5.136  5.711  6.369  7.135
 7082.2   95  1.3131 -2.774e-02  0.401  1.172    1.80  1.1592  0.142  2.780  0.797  0.775  1.000  2.327  2.843  2.700  2.315  1.851  1.431  1.081
  300.0   99  1.3500 -3.280e-08  0.401  1.970    1.80  2.1147  0.154  4.673  1.000  0.851  1.000  2.553  3.893  4.567  5.266  5.923  6.555  7.369
  400.0   99  1.3400 -2.100e-09  0.401  1.970    1.80  2.1403  0.156  4.673  1.000  0.847  1.000  2.542  3.875  4.546  5.225  5.868  6.461  7.211
  440.0   99  1.3383 -1.191e-09  0.401  1.970    1.80  2.1502  0.157  4.673  1.000  0.845  1.000  2.535  3.863  4.526  5.200  5.836  6.417  7.147
  500.0   99  1.3360 -1.120e-09  0.401  1.970    1.80  2.1641  0.158  4.673  1.000  0.842  1.000  2.525  3.846  4.498  5.166  5.783  6.349  7.045
  550.0   99  1.3340 -2.030e-09  0.401  1.970    1.80  2.1757  0.159  4.673  1.000  0.839  1.000  2.517  3.831  4.475  5.135  5.742  6.294  6.965
  600.0   99  1.3330 -1.090e-08  0.401  1.970    1.80  2.1869  0.160  4.673  1.000  0.836  1.000  2.508  3.815  4.447  5.102  5.693  6.234  6.880
  675.0   99  1.3320 -2.339e-08  0.401  1.970    1.80  2.2024  0.160  4.673  1.000  0.831  1.000  2.495  3.790  4.405  5.049  5.618  6.142  6.754
  800.0   99  1.3300 -1.400e-07  0.401  1.970    1.80  2.2314  0.163  4.673  1.000  0.824  1.000  2.472  3.747  4.331  4.958  5.488  5.982  6.537
  870.0   99  1.3292  1.267e-06  0.401  1.970    1.80  2.2472  0.164  4.673  1.000  0.820  1.000  2.461  3.723  4.291  4.906  5.414  5.891  6.416
 1000.0   99  1.3280 -4.060e-06  0.401  1.970    1.80  2.2785  0.166  4.673  1.000  0.814  1.000  2.442  3.681  4.219  4.808  5.277  5.719  6.191
 1020.0   99  1.3277  5.675e-06  0.401  1.970    1.80  2.2836  0.166  4.673  1.000  0.813  1.000  2.439  3.675  4.209  4.793  5.256  5.692  6.156
55555.6   99  1.5340 -3.370e-01  0.401  1.970    1.80  0.8470  0.062  4.673  0.269  0.449  1.000  1.346  1.177  0.645  0.332  0.165  0.084  0.043
23529.4   99  1.5196 -3.622e-01  0.401  1.970    1.80  1.3236  0.096  4.673  0.330  0.555  1.000  1.663  1.579  1.083  0.681  0.408  0.243  0.146
17699.1   99  1.4127 -4.245e-01  0.401  1.970    1.80  1.6234  0.119  4.673  0.321  0.625  1.000  1.875  1.964  1.562  1.125  0.768  0.515  0.345
15037.6   99  1.2744 -4.001e-01  0.401  1.970    1.80  1.5709  0.114  4.673  0.298  0.679  1.000  2.037  2.284  1.981  1.546  1.141  0.822  0.585
13157.9   99  1.1572 -3.154e-01  0.401  1.970    1.80  1.3562  0.099  4.673  0.271  0.734  1.000  2.202  2.616  2.434  2.029  1.598  1.221  0.919
11111.1   99  1.1491 -1.054e-01  0.401  1.970    1.80  0.8480  0.062  4.673  0.323  0.821  1.000  2.463  3.174  3.242  2.969  2.556  2.124  1.725
 9708.7   99  1.2365 -4.645e-02  0.401  1.970    1.80  1.1185  0.081  4.673  0.657  0.833  1.000  2.499  3.268  3.393  3.162  2.760  2.317  1.896
 8849.6   99  1.2703 -3.876e-02  0.401  1.970    1.80  1.4125  0.103  4.673  0.735  0.833  1.000  2.498  3.279  3.419  3.205  2.812  2.372  1.950
 7782.1   99  1.2993 -3.394e-02  0.401  1.970    1.80  1.7699  0.129  4.673  0.783  0.833  1.000  2.500  3.308  3.484  3.307  2.938  2.512  2.094
 6968.6   99  1.3077 -2.514e-02  0.401  1.970    1.80  2.0243  0.148  4.673  0.811  0.833  1.000  2.499  3.334  3.541  3.402  3.064  2.657  2.252
 6097.6   99  1.3167 -1.015e-01  0.401  1.970    1.80  2.1348  0.156  4.673  0.570  0.862  1.000  2.586  3.546  3.938  3.953  3.739  3.407  3.030
 5154.6   99  1.3264 -4.102e-03  0.401  1.970    1.80  2.5348  0.185  4.673  0.934  0.829  1.000  2.485  3.398  3.687  3.662  3.421  3.086  2.732
 4618.9   99  1.3301 -1.550e-02  0.401  1.970    1.80  2.6297  0.192  4.673  0.874  0.831  1.000  2.494  3.438  3.775  3.814  3.635  3.355  3.047
 4319.7   99  1.3384 -9.527e-03  0.401  1.970    1.80  2.7087  0.198  4.673  0.908  0.822  1.000  2.463  3.403  3.716  3.769  3.605  3.349  3.070
 4016.1   99  1.3511 -4.702e-03  0.401  1.970    1.80  2.7802  0.203  4.673  0.949  0.803  1.000  2.408  3.332  3.592  3.657  3.505  3.280  3.043
 3418.8   99  1.4150 -1.884e-02  0.401  1.970    1.80  2.7578  0.201  4.673  0.814  0.791  1.000  2.371  3.270  3.572  3.780  3.784  3.733  3.646
 3444.7   99  1.4095 -1.539e-02  0.401  1.970    1.80  2.7690  0.202  4.673  0.842  0.786  1.000  2.357  3.249  3.520  3.709  3.688  3.620  3.523
 2777.0   99  1.2812 -2.241e-01  0.401  1.970    1.80  2.4355  0.177  4.673  0.663  0.905  1.000  2.717  4.124  5.104  5.768  6.171  6.380  6.427
 2320.2   99  1.2761  4.325e-02  0.401  1.970    1.80  2.7284  0.199  4.673  1.000  0.833  1.000  2.499  3.616  4.127  4.406  4.507  4.504  4.435
 2044.2   99  1.3041  4.400e-03  0.401  1.970    1.80  2.6071  0.190  4.673  0.978  0.816  1.000  2.448  3.569  4.046  4.396  4.584  4.700  4.771
 1778.4   99  1.3133 -1.058e-03  0.401  1.970    1.80  2.5162  0.184  4.673  0.994  0.804  1.000  2.413  3.549  4.001  4.399  4.642  4.835  4.999
 1455.2   99  1.3228 -4.298e-04  0.401  1.970    1.80  2.4082  0.176  4.673  0.993  0.802  1.000  2.406  3.573  4.040  4.521  4.855  5.161  5.455
 1270.3   99  1.3238 -7.048e-05  0.401  1.970    1.80  2.3526  0.171  4.673  0.998  0.805  1.000  2.415  3.609  4.098  4.623  5.009  5.369  5.730
  944.3   99  1.3286 -7.830e-06  0.401  1.970    1.80  2.2649  0.165  4.673  1.000  0.817  1.000  2.449  3.698  4.249  4.850  5.335  5.793  6.288
  693.5   99  1.3320 -3.142e-08  0.401  1.970    1.80  2.2067  0.161  4.673  1.000  0.830  1.000  2.491  3.783  4.392  5.035  5.598  6.118  6.721
  527.1   99  1.3348 -7.585e-10  0.401  1.970    1.80  2.1704  0.159  4.673  1.000  0.840  1.000  2.521  3.838  4.486  5.150  5.761  6.319  7.002
  399.8   99  1.3400 -2.115e-09  0.401  1.970    1.80  2.1402  0.156  4.673  1.000  0.847  1.000  2.542  3.875  4.546  5.225  5.868  6.461  7.211
  329.1   99  1.3457 -1.582e-08  0.401  1.970    1.80  2.1218  0.155  4.673  1.000  0.851  1.000  2.551  3.891  4.568  5.258  5.913  6.530  7.324
  229.8   99  1.3649 -8.153e-08  0.401  1.970    1.80  2.0998  0.153  4.673  1.000  0.850  1.000  2.551  3.884  4.537  5.263  5.910  6.588  7.446
 7082.2   99  1.3105 -2.853e-02  0.401  1.970    1.80  1.9993  0.146  4.673  0.804  0.833  1.000  2.499  3.327  3.529  3.382  3.039  2.628  2.221
